LabVIEW Measurement	
Writer_Version	2
Reader_Version	2
Separator	Tab
Decimal_Separator	.
Multi_Headings	No
X_Columns	One
Time_Pref	Absolute
Operator	matthewb
Date	2017/01/30
Time	16:19:08.208694030035044453
***End_of_Header***	
	
Channels	1	
Samples	1	
Date	2017/01/30	
Time	16:19:08.208694030035044453	
Y_Unit_Label	Volts	
X_Dimension	Time	
X0	0.0000000000000000E+0	
Delta_X	0.001000	
***End_of_Header***		
X_Value	Voltage	Comment
0.000000	0.950450
0.001000	0.955603
0.002000	0.955603
0.003000	0.950772
0.004000	0.947873
0.005000	0.948839
0.006000	0.944331
0.007000	0.954314
0.008000	0.953992
0.009000	0.955603
0.010000	0.951416
0.011000	0.951738
0.012000	0.951416
0.013000	0.953992
0.014000	0.954314
0.015000	0.953992
0.016000	0.960111
0.017000	0.954636
0.018000	0.949162
0.019000	0.952382
0.020000	0.950772
0.021000	0.951416
0.022000	0.953348
0.023000	0.955281
0.024000	0.956569
0.025000	0.957213
0.026000	0.952704
0.027000	0.952382
0.028000	0.953026
0.029000	0.953348
0.030000	0.955925
0.031000	0.949162
0.032000	0.959789
0.033000	0.961722
0.034000	0.954314
0.035000	0.954636
0.036000	0.954958
0.037000	0.958823
0.038000	0.954636
0.039000	0.958179
0.040000	0.957213
0.041000	0.957535
0.042000	0.954958
0.043000	0.956247
0.044000	0.957535
0.045000	0.950450
0.046000	0.960433
0.047000	0.965908
0.048000	0.964298
0.049000	0.960755
0.050000	0.960433
0.051000	0.957857
0.052000	0.956247
0.053000	0.958823
0.054000	0.962688
0.055000	0.963332
0.056000	0.964620
0.057000	0.959789
0.058000	0.959145
0.059000	0.960111
0.060000	0.959789
0.061000	0.963976
0.062000	0.961722
0.063000	0.966874
0.064000	0.961399
0.065000	0.960433
0.066000	0.965586
0.067000	0.963010
0.068000	0.967841
0.069000	0.965908
0.070000	0.966874
0.071000	0.971383
0.072000	0.971705
0.073000	0.967196
0.074000	0.969451
0.075000	0.970417
0.076000	0.965264
0.077000	0.965908
0.078000	0.974282
0.079000	0.972671
0.080000	0.971061
0.081000	0.970095
0.082000	0.967518
0.083000	0.970739
0.084000	0.968163
0.085000	0.971705
0.086000	0.975570
0.087000	0.974604
0.088000	0.972027
0.089000	0.963976
0.090000	0.966874
0.091000	0.969451
0.092000	0.967841
0.093000	0.971061
0.094000	0.971705
0.095000	0.970417
0.096000	0.970095
0.097000	0.961077
0.098000	0.964942
0.099000	0.960111
0.100000	0.963976
0.101000	0.965908
0.102000	0.965264
0.103000	0.963654
0.104000	0.955603
0.105000	0.955925
0.106000	0.955603
0.107000	0.953348
0.108000	0.954958
0.109000	0.953670
0.110000	0.952382
0.111000	0.957213
0.112000	0.948195
0.113000	0.947229
0.114000	0.951738
0.115000	0.948195
0.116000	0.952060
0.117000	0.957535
0.118000	0.953992
0.119000	0.953026
0.120000	0.943687
0.121000	0.946907
0.122000	0.950128
0.123000	0.951094
0.124000	0.950772
0.125000	0.954636
0.126000	0.954636
0.127000	0.950128
0.128000	0.950128
0.129000	0.953348
0.130000	0.952704
0.131000	0.954636
0.132000	0.959467
0.133000	0.960433
0.134000	0.961399
0.135000	0.961722
0.136000	0.964942
0.137000	0.966552
0.138000	0.962366
0.139000	0.972349
0.140000	0.974926
0.141000	0.983943
0.142000	0.979112
0.143000	0.985875
0.144000	0.986520
0.145000	0.984909
0.146000	0.991028
0.147000	0.993283
0.148000	1.001656
0.149000	1.004554
0.150000	1.005199
0.151000	1.006809
0.152000	1.009063
0.153000	1.012284
0.154000	1.005843
0.155000	1.012928
0.156000	1.022267
0.157000	1.020335
0.158000	1.017436
0.159000	1.020979
0.160000	1.021945
0.161000	1.020979
0.162000	1.024522
0.163000	1.022589
0.164000	1.028064
0.165000	1.034183
0.166000	1.030319
0.167000	1.030963
0.168000	1.034505
0.169000	1.030319
0.170000	1.033861
0.171000	1.028708
0.172000	1.029674
0.173000	1.031929
0.174000	1.029030
0.175000	1.028386
0.176000	1.026454
0.177000	1.029997
0.178000	1.036115
0.179000	1.029997
0.180000	1.034827
0.181000	1.030641
0.182000	1.028386
0.183000	1.026454
0.184000	1.024200
0.185000	1.020335
0.186000	1.027098
0.187000	1.023555
0.188000	1.023878
0.189000	1.018403
0.190000	1.014860
0.191000	1.013250
0.192000	1.015182
0.193000	1.011640
0.194000	1.009063
0.195000	1.014216
0.196000	1.006809
0.197000	1.003588
0.198000	0.997469
0.199000	0.998757
0.200000	0.994249
0.201000	0.991672
0.202000	0.995537
0.203000	0.989418
0.204000	0.988130
0.205000	0.979112
0.206000	0.983299
0.207000	0.970739
0.208000	0.970739
0.209000	0.972993
0.210000	0.965908
0.211000	0.969773
0.212000	0.971061
0.213000	0.957213
0.214000	0.959145
0.215000	0.962688
0.216000	0.962688
0.217000	0.963654
0.218000	0.970739
0.219000	0.967196
0.220000	0.963976
0.221000	0.962044
0.222000	0.960755
0.223000	0.964620
0.224000	0.957535
0.225000	0.969129
0.226000	0.968163
0.227000	0.965908
0.228000	0.963010
0.229000	0.964942
0.230000	0.963976
0.231000	0.969129
0.232000	0.969773
0.233000	0.967518
0.234000	0.972027
0.235000	0.968485
0.236000	0.966230
0.237000	0.967841
0.238000	0.967841
0.239000	0.966552
0.240000	0.968807
0.241000	0.968807
0.242000	0.969773
0.243000	0.971061
0.244000	0.968485
0.245000	0.966874
0.246000	0.967196
0.247000	0.965586
0.248000	0.969451
0.249000	0.966874
0.250000	0.969451
0.251000	0.967196
0.252000	0.961399
0.253000	0.962688
0.254000	0.963332
0.255000	0.955925
0.256000	0.962044
0.257000	0.963654
0.258000	0.959467
0.259000	0.955603
0.260000	0.955925
0.261000	0.954314
0.262000	0.951738
0.263000	0.947229
0.264000	0.953026
0.265000	0.957857
0.266000	0.955925
0.267000	0.949806
0.268000	0.953026
0.269000	0.949162
0.270000	0.948517
0.271000	0.950128
0.272000	0.949484
0.273000	0.955281
0.274000	0.945619
0.275000	0.940466
0.276000	0.944331
0.277000	0.946263
0.278000	0.942720
0.279000	0.946263
0.280000	0.941754
0.281000	0.942076
0.282000	0.940144
0.283000	0.939500
0.284000	0.927262
0.285000	0.930483
0.286000	0.927584
0.287000	0.925330
0.288000	0.921465
0.289000	0.915990
0.290000	0.909871
0.291000	0.924364
0.292000	0.948195
0.293000	0.990706
0.294000	1.010029
0.295000	1.069609
0.296000	1.106323
0.297000	1.127578
0.298000	1.154953
0.299000	1.189090
0.300000	1.226126
0.301000	1.257043
0.302000	1.286672
0.303000	1.320165
0.304000	1.352048
0.305000	1.386508
0.306000	1.415814
0.307000	1.447053
0.308000	1.477326
0.309000	1.509209
0.310000	1.539482
0.311000	1.450274
0.312000	1.431273
0.313000	1.408407
0.314000	1.389406
0.315000	1.363642
0.316000	1.339810
0.317000	1.313724
0.318000	1.297621
0.319000	1.271857
0.320000	1.258331
0.321000	1.214532
0.322000	1.196497
0.323000	1.158817
0.324000	1.144325
0.325000	1.124358
0.326000	1.089576
0.327000	1.076050
0.328000	1.054472
0.329000	1.026776
0.330000	1.005843
0.331000	0.977502
0.332000	0.956569
0.333000	0.942076
0.334000	0.917923
0.335000	0.905685
0.336000	0.880242
0.337000	0.856733
0.338000	0.856089
0.339000	0.866716
0.340000	0.873157
0.341000	0.873479
0.342000	0.883141
0.343000	0.886361
0.344000	0.889582
0.345000	0.887006
0.346000	0.889582
0.347000	0.897633
0.348000	0.911159
0.349000	0.932737
0.350000	0.943043
0.351000	0.958823
0.352000	0.960111
0.353000	0.959145
0.354000	0.955925
0.355000	0.955925
0.356000	0.956247
0.357000	0.956247
0.358000	0.958179
0.359000	0.960433
0.360000	0.958179
0.361000	0.959467
0.362000	0.959467
0.363000	0.963010
0.364000	0.955603
0.365000	0.963654
0.366000	0.970739
0.367000	0.962688
0.368000	0.963332
0.369000	0.962688
0.370000	0.959789
0.371000	0.959467
0.372000	0.961722
0.373000	0.964298
0.374000	0.965264
0.375000	0.965586
0.376000	0.963010
0.377000	0.963010
0.378000	0.962044
0.379000	0.968485
0.380000	0.967518
0.381000	0.969451
0.382000	0.977180
0.383000	0.972349
0.384000	0.973960
0.385000	0.973960
0.386000	0.972027
0.387000	0.975248
0.388000	0.983943
0.389000	0.987486
0.390000	0.992961
0.391000	0.995215
0.392000	0.998435
0.393000	0.998113
0.394000	1.001334
0.395000	1.003588
0.396000	1.007453
0.397000	1.013250
0.398000	1.011318
0.399000	1.020335
0.400000	1.020335
0.401000	1.022267
0.402000	1.021301
0.403000	1.015826
0.404000	1.025810
0.405000	1.029997
0.406000	1.029997
0.407000	1.032573
0.408000	1.027098
0.409000	1.037082
0.410000	1.035149
0.411000	1.037726
0.412000	1.039658
0.413000	1.040624
0.414000	1.049320
0.415000	1.043201
0.416000	1.049964
0.417000	1.049642
0.418000	1.053828
0.419000	1.058659
0.420000	1.055117
0.421000	1.065100
0.422000	1.063490
0.423000	1.059303
0.424000	1.069609
0.425000	1.063490
0.426000	1.066710
0.427000	1.068965
0.428000	1.073473
0.429000	1.076372
0.430000	1.078304
0.431000	1.073796
0.432000	1.071863
0.433000	1.073796
0.434000	1.078626
0.435000	1.083779
0.436000	1.086033
0.437000	1.082813
0.438000	1.082813
0.439000	1.081203
0.440000	1.084423
0.441000	1.083779
0.442000	1.081203
0.443000	1.085067
0.444000	1.090864
0.445000	1.090864
0.446000	1.085067
0.447000	1.086033
0.448000	1.077982
0.449000	1.082813
0.450000	1.082813
0.451000	1.085389
0.452000	1.086356
0.453000	1.085389
0.454000	1.077982
0.455000	1.078948
0.456000	1.082813
0.457000	1.079592
0.458000	1.081525
0.459000	1.084101
0.460000	1.076694
0.461000	1.076372
0.462000	1.072185
0.463000	1.076694
0.464000	1.075406
0.465000	1.068965
0.466000	1.069609
0.467000	1.071863
0.468000	1.070897
0.469000	1.067999
0.470000	1.059947
0.471000	1.058981
0.472000	1.058981
0.473000	1.052540
0.474000	1.056083
0.475000	1.064778
0.476000	1.053828
0.477000	1.050608
0.478000	1.042234
0.479000	1.040946
0.480000	1.038048
0.481000	1.036115
0.482000	1.034183
0.483000	1.035793
0.484000	1.034183
0.485000	1.024200
0.486000	1.026454
0.487000	1.019369
0.488000	1.016148
0.489000	1.015182
0.490000	1.011962
0.491000	1.009385
0.492000	1.010029
0.493000	1.002300
0.494000	1.002944
0.495000	0.994893
0.496000	0.994893
0.497000	1.001012
0.498000	0.996181
0.499000	0.996503
0.500000	0.989740
0.501000	0.987164
0.502000	0.977824
0.503000	0.977824
0.504000	0.964942
0.505000	0.969129
0.506000	0.979756
0.507000	0.966552
0.508000	0.962688
0.509000	0.961077
0.510000	0.957213
0.511000	0.960755
0.512000	0.959789
0.513000	0.963976
0.514000	0.964298
0.515000	0.962688
0.516000	0.961077
0.517000	0.959145
0.518000	0.961722
0.519000	0.965908
0.520000	0.962366
0.521000	0.965586
0.522000	0.962044
0.523000	0.968163
0.524000	0.967196
0.525000	0.964942
0.526000	0.964942
0.527000	0.967196
0.528000	0.964620
0.529000	0.966230
0.530000	0.971061
0.531000	0.966552
0.532000	0.966874
0.533000	0.969451
0.534000	0.971061
0.535000	0.967518
0.536000	0.970739
0.537000	0.972993
0.538000	0.970095
0.539000	0.968485
0.540000	0.970417
0.541000	0.968485
0.542000	0.970417
0.543000	0.959145
0.544000	0.972993
0.545000	0.979756
0.546000	0.975892
0.547000	0.970739
0.548000	0.969451
0.549000	0.972349
0.550000	0.971061
0.551000	0.967841
0.552000	0.970095
0.553000	0.966874
0.554000	0.970739
0.555000	0.963010
0.556000	0.964620
0.557000	0.963332
0.558000	0.959789
0.559000	0.961077
0.560000	0.962366
0.561000	0.962366
0.562000	0.960433
0.563000	0.956891
0.564000	0.958823
0.565000	0.955603
0.566000	0.954958
0.567000	0.954958
0.568000	0.953992
0.569000	0.960755
0.570000	0.954958
0.571000	0.949162
0.572000	0.949806
0.573000	0.953026
0.574000	0.945619
0.575000	0.947873
0.576000	0.957857
0.577000	0.953348
0.578000	0.952382
0.579000	0.949806
0.580000	0.949484
0.581000	0.949806
0.582000	0.950128
0.583000	0.952704
0.584000	0.955603
0.585000	0.956569
0.586000	0.948839
0.587000	0.949162
0.588000	0.951738
0.589000	0.947229
0.590000	0.947551
0.591000	0.951738
0.592000	0.951738
0.593000	0.952060
0.594000	0.949162
0.595000	0.952060
0.596000	0.950772
0.597000	0.956891
0.598000	0.953348
0.599000	0.953670
0.600000	0.954314
0.601000	0.952382
0.602000	0.948839
0.603000	0.953026
0.604000	0.949806
0.605000	0.947551
0.606000	0.950450
0.607000	0.952704
0.608000	0.953348
0.609000	0.956247
0.610000	0.952060
0.611000	0.948839
0.612000	0.950772
0.613000	0.947229
0.614000	0.947551
0.615000	0.961077
0.616000	0.958179
0.617000	0.952060
0.618000	0.951416
0.619000	0.951416
0.620000	0.952704
0.621000	0.951094
0.622000	0.954314
0.623000	0.956891
0.624000	0.952704
0.625000	0.950772
0.626000	0.951094
0.627000	0.952060
0.628000	0.950772
0.629000	0.954958
0.630000	0.957857
0.631000	0.958501
0.632000	0.957535
0.633000	0.949806
0.634000	0.956247
0.635000	0.953670
0.636000	0.950128
0.637000	0.952382
0.638000	0.955603
0.639000	0.957857
0.640000	0.957535
0.641000	0.949806
0.642000	0.952704
0.643000	0.953670
0.644000	0.952382
0.645000	0.956247
0.646000	0.958823
0.647000	0.954636
0.648000	0.958823
0.649000	0.956247
0.650000	0.954958
0.651000	0.955603
0.652000	0.954314
0.653000	0.959145
0.654000	0.959467
0.655000	0.961399
0.656000	0.956247
0.657000	0.953670
0.658000	0.961722
0.659000	0.956891
0.660000	0.957857
0.661000	0.957213
0.662000	0.962366
0.663000	0.964620
0.664000	0.957857
0.665000	0.960755
0.666000	0.956569
0.667000	0.962366
0.668000	0.961722
0.669000	0.962366
0.670000	0.963332
0.671000	0.966552
0.672000	0.962688
0.673000	0.962688
0.674000	0.962366
0.675000	0.959145
0.676000	0.963332
0.677000	0.965908
0.678000	0.971061
0.679000	0.969773
0.680000	0.965586
0.681000	0.966230
0.682000	0.970095
0.683000	0.959145
0.684000	0.963654
0.685000	0.975570
0.686000	0.967196
0.687000	0.967518
0.688000	0.966230
0.689000	0.966874
0.690000	0.967518
0.691000	0.964298
0.692000	0.969451
0.693000	0.973315
0.694000	0.971383
0.695000	0.971061
0.696000	0.971705
0.697000	0.970095
0.698000	0.970095
0.699000	0.976214
0.700000	0.971383
0.701000	0.971383
0.702000	0.968807
0.703000	0.970095
0.704000	0.965908
0.705000	0.968485
0.706000	0.966552
0.707000	0.966230
0.708000	0.964620
0.709000	0.966874
0.710000	0.968807
0.711000	0.962688
0.712000	0.960111
0.713000	0.962366
0.714000	0.963654
0.715000	0.962366
0.716000	0.963654
0.717000	0.958179
0.718000	0.958501
0.719000	0.955925
0.720000	0.952382
0.721000	0.952382
0.722000	0.949484
0.723000	0.953670
0.724000	0.960755
0.725000	0.952382
0.726000	0.948517
0.727000	0.946263
0.728000	0.946907
0.729000	0.949806
0.730000	0.947229
0.731000	0.954314
0.732000	0.958823
0.733000	0.953348
0.734000	0.951738
0.735000	0.953026
0.736000	0.950128
0.737000	0.948839
0.738000	0.951416
0.739000	0.949162
0.740000	0.956569
0.741000	0.955603
0.742000	0.951094
0.743000	0.946263
0.744000	0.952060
0.745000	0.951738
0.746000	0.950450
0.747000	0.950772
0.748000	0.955603
0.749000	0.955603
0.750000	0.950772
0.751000	0.950772
0.752000	0.951094
0.753000	0.947873
0.754000	0.951738
0.755000	0.958501
0.756000	0.953670
0.757000	0.953026
0.758000	0.949806
0.759000	0.950450
0.760000	0.949162
0.761000	0.945619
0.762000	0.952382
0.763000	0.957535
0.764000	0.955603
0.765000	0.952382
0.766000	0.950772
0.767000	0.952060
0.768000	0.953670
0.769000	0.952382
0.770000	0.951738
0.771000	0.955925
0.772000	0.954314
0.773000	0.953670
0.774000	0.951738
0.775000	0.949162
0.776000	0.953026
0.777000	0.952060
0.778000	0.953026
0.779000	0.957535
0.780000	0.956891
0.781000	0.952704
0.782000	0.950450
0.783000	0.951738
0.784000	0.952382
0.785000	0.951738
0.786000	0.955925
0.787000	0.953992
0.788000	0.954958
0.789000	0.950772
0.790000	0.951094
0.791000	0.952382
0.792000	0.953670
0.793000	0.957857
0.794000	0.961722
0.795000	0.958823
0.796000	0.952382
0.797000	0.957857
0.798000	0.955281
0.799000	0.958823
0.800000	0.953670
0.801000	0.956569
0.802000	0.961077
0.803000	0.957535
0.804000	0.956247
0.805000	0.954958
0.806000	0.958501
0.807000	0.960111
0.808000	0.952060
0.809000	0.955925
0.810000	0.958501
0.811000	0.961399
0.812000	0.958823
0.813000	0.954958
0.814000	0.963654
0.815000	0.961077
0.816000	0.962688
0.817000	0.963976
0.818000	0.961077
0.819000	0.965586
0.820000	0.959467
0.821000	0.957535
0.822000	0.960111
0.823000	0.957213
0.824000	0.962688
0.825000	0.968485
0.826000	0.963976
0.827000	0.962044
0.828000	0.966874
0.829000	0.961722
0.830000	0.965908
0.831000	0.963332
0.832000	0.967518
0.833000	0.971061
0.834000	0.966874
0.835000	0.967518
0.836000	0.966230
0.837000	0.964620
0.838000	0.967841
0.839000	0.969773
0.840000	0.968163
0.841000	0.971383
0.842000	0.970417
0.843000	0.969451
0.844000	0.969129
0.845000	0.970417
0.846000	0.971383
0.847000	0.971383
0.848000	0.970095
0.849000	0.976214
0.850000	0.976214
0.851000	0.970739
0.852000	0.971705
0.853000	0.969451
0.854000	0.972027
0.855000	0.972027
0.856000	0.969129
0.857000	0.968485
0.858000	0.968807
0.859000	0.963976
0.860000	0.960111
0.861000	0.964620
0.862000	0.958501
0.863000	0.965586
0.864000	0.972027
0.865000	0.966230
0.866000	0.963332
0.867000	0.961399
0.868000	0.957213
0.869000	0.962688
0.870000	0.953348
0.871000	0.957857
0.872000	0.958179
0.873000	0.957535
0.874000	0.952382
0.875000	0.953670
0.876000	0.949806
0.877000	0.953026
0.878000	0.956247
0.879000	0.947551
0.880000	0.953670
0.881000	0.951094
0.882000	0.951416
0.883000	0.952382
0.884000	0.952060
0.885000	0.951416
0.886000	0.953026
0.887000	0.954958
0.888000	0.952382
0.889000	0.953348
0.890000	0.952060
0.891000	0.946585
0.892000	0.950772
0.893000	0.949162
0.894000	0.953670
0.895000	0.958823
0.896000	0.953992
0.897000	0.952704
0.898000	0.950772
0.899000	0.951094
0.900000	0.953026
0.901000	0.952382
0.902000	0.953992
0.903000	0.954958
0.904000	0.953348
0.905000	0.950772
0.906000	0.950450
0.907000	0.950450
0.908000	0.949162
0.909000	0.951416
0.910000	0.953348
0.911000	0.956247
0.912000	0.957535
0.913000	0.950772
0.914000	0.953992
0.915000	0.952382
0.916000	0.951094
0.917000	0.955281
0.918000	0.953670
0.919000	0.958179
0.920000	0.954958
0.921000	0.949162
0.922000	0.952382
0.923000	0.951738
0.924000	0.951416
0.925000	0.948517
0.926000	0.952382
0.927000	0.955281
0.928000	0.955603
0.929000	0.950128
0.930000	0.953348
0.931000	0.953026
0.932000	0.948517
0.933000	0.954314
0.934000	0.958823
0.935000	0.956569
0.936000	0.953026
0.937000	0.952382
0.938000	0.953026
0.939000	0.955925
0.940000	0.953348
0.941000	0.951094
0.942000	0.956247
0.943000	0.952704
0.944000	0.953992
0.945000	0.953026
0.946000	0.952060
0.947000	0.953992
0.948000	0.955281
0.949000	0.957857
0.950000	0.962044
0.951000	0.957535
0.952000	0.953992
0.953000	0.953992
0.954000	0.958501
0.955000	0.955925
0.956000	0.957213
0.957000	0.958179
0.958000	0.956891
0.959000	0.957535
0.960000	0.956247
0.961000	0.955603
0.962000	0.961399
0.963000	0.958823
0.964000	0.963010
0.965000	0.966230
0.966000	0.962044
0.967000	0.960755
0.968000	0.954958
0.969000	0.959467
0.970000	0.959145
0.971000	0.956569
0.972000	0.962688
0.973000	0.965908
0.974000	0.960755
0.975000	0.960111
0.976000	0.957535
0.977000	0.961722
0.978000	0.958179
0.979000	0.959145
0.980000	0.962688
0.981000	0.966874
0.982000	0.965264
0.983000	0.961722
0.984000	0.963976
0.985000	0.964620
0.986000	0.967518
0.987000	0.966874
0.988000	0.970739
0.989000	0.967841
0.990000	0.968807
0.991000	0.963654
0.992000	0.963976
0.993000	0.968485
0.994000	0.967196
0.995000	0.972349
0.996000	0.968807
0.997000	0.973315
0.998000	0.970095
0.999000	0.971061
1.000000	0.972349
1.001000	0.972027
1.002000	0.967841
1.003000	0.970095
1.004000	0.976536
1.005000	0.973637
1.006000	0.970417
1.007000	0.966230
1.008000	0.966874
1.009000	0.964942
1.010000	0.968807
1.011000	0.968485
1.012000	0.972349
1.013000	0.969451
1.014000	0.965908
1.015000	0.968163
1.016000	0.964298
1.017000	0.964298
1.018000	0.963010
1.019000	0.961077
1.020000	0.962366
1.021000	0.959789
1.022000	0.955603
1.023000	0.954636
1.024000	0.951416
1.025000	0.954636
1.026000	0.957213
1.027000	0.955925
1.028000	0.955603
1.029000	0.954636
1.030000	0.956247
1.031000	0.953026
1.032000	0.953026
1.033000	0.953348
1.034000	0.951738
1.035000	0.952382
1.036000	0.955603
1.037000	0.956569
1.038000	0.941432
1.039000	0.947229
1.040000	0.949806
1.041000	0.947873
1.042000	0.955925
1.043000	0.954314
1.044000	0.954958
1.045000	0.953348
1.046000	0.953026
1.047000	0.950772
1.048000	0.950128
1.049000	0.951738
1.050000	0.952060
1.051000	0.957213
1.052000	0.955925
1.053000	0.951094
1.054000	0.950772
1.055000	0.953348
1.056000	0.950772
1.057000	0.953670
1.058000	0.952382
1.059000	0.954636
1.060000	0.955281
1.061000	0.953026
1.062000	0.954314
1.063000	0.949484
1.064000	0.952060
1.065000	0.955603
1.066000	0.953670
1.067000	0.955925
1.068000	0.955603
1.069000	0.953026
1.070000	0.951416
1.071000	0.952060
1.072000	0.949806
1.073000	0.954314
1.074000	0.958501
1.075000	0.954636
1.076000	0.951416
1.077000	0.950450
1.078000	0.952704
1.079000	0.953026
1.080000	0.954314
1.081000	0.956891
1.082000	0.959145
1.083000	0.959145
1.084000	0.951738
1.085000	0.953670
1.086000	0.954958
1.087000	0.953348
1.088000	0.952704
1.089000	0.952704
1.090000	0.956569
1.091000	0.954314
1.092000	0.952704
1.093000	0.949162
1.094000	0.954314
1.095000	0.957213
1.096000	0.953348
1.097000	0.957535
1.098000	0.961722
1.099000	0.956569
1.100000	0.958501
1.101000	0.953992
1.102000	0.957857
1.103000	0.955603
1.104000	0.954314
1.105000	0.955281
1.106000	0.958179
1.107000	0.956891
1.108000	0.959145
1.109000	0.954636
1.110000	0.957213
1.111000	0.954958
1.112000	0.960433
1.113000	0.964620
1.114000	0.962366
1.115000	0.958823
1.116000	0.957213
1.117000	0.960755
1.118000	0.958501
1.119000	0.961399
1.120000	0.960111
1.121000	0.963976
1.122000	0.962366
1.123000	0.959789
1.124000	0.958501
1.125000	0.962044
1.126000	0.958823
1.127000	0.962688
1.128000	0.960755
1.129000	0.964620
1.130000	0.969773
1.131000	0.964298
1.132000	0.965908
1.133000	0.967841
1.134000	0.968163
1.135000	0.968163
1.136000	0.967196
1.137000	0.968807
1.138000	0.974926
1.139000	0.967518
1.140000	0.969773
1.141000	0.970739
1.142000	0.973315
1.143000	0.979112
1.144000	0.986197
1.145000	0.983299
1.146000	0.993283
1.147000	0.994571
1.148000	1.001334
1.149000	0.999402
1.150000	0.996181
1.151000	1.000690
1.152000	1.007131
1.153000	1.013572
1.154000	1.008741
1.155000	1.016148
1.156000	1.018403
1.157000	1.020657
1.158000	1.023555
1.159000	1.028386
1.160000	1.027420
1.161000	1.032251
1.162000	1.027742
1.163000	1.032895
1.164000	1.035793
1.165000	1.036115
1.166000	1.040946
1.167000	1.039336
1.168000	1.042879
1.169000	1.037404
1.170000	1.034827
1.171000	1.035471
1.172000	1.036438
1.173000	1.035149
1.174000	1.039980
1.175000	1.039014
1.176000	1.036760
1.177000	1.039014
1.178000	1.029674
1.179000	1.028708
1.180000	1.033217
1.181000	1.027742
1.182000	1.033539
1.183000	1.033861
1.184000	1.029997
1.185000	1.029997
1.186000	1.028386
1.187000	1.025810
1.188000	1.021945
1.189000	1.019691
1.190000	1.022267
1.191000	1.026454
1.192000	1.026132
1.193000	1.021301
1.194000	1.016792
1.195000	1.015504
1.196000	1.019691
1.197000	1.007775
1.198000	1.010673
1.199000	1.016148
1.200000	1.010995
1.201000	1.002300
1.202000	1.004232
1.203000	0.998435
1.204000	1.000690
1.205000	0.998113
1.206000	0.992639
1.207000	0.990706
1.208000	0.989418
1.209000	0.986520
1.210000	0.979756
1.211000	0.977824
1.212000	0.970739
1.213000	0.973315
1.214000	0.967196
1.215000	0.964942
1.216000	0.965264
1.217000	0.957213
1.218000	0.956891
1.219000	0.956569
1.220000	0.951416
1.221000	0.953348
1.222000	0.958501
1.223000	0.957535
1.224000	0.952060
1.225000	0.947551
1.226000	0.950450
1.227000	0.951094
1.228000	0.950128
1.229000	0.952382
1.230000	0.955603
1.231000	0.958823
1.232000	0.952704
1.233000	0.952382
1.234000	0.953670
1.235000	0.951094
1.236000	0.953992
1.237000	0.954314
1.238000	0.954958
1.239000	0.956569
1.240000	0.950450
1.241000	0.953026
1.242000	0.952382
1.243000	0.955281
1.244000	0.953026
1.245000	0.953026
1.246000	0.956569
1.247000	0.954636
1.248000	0.951416
1.249000	0.952382
1.250000	0.951738
1.251000	0.945941
1.252000	0.955603
1.253000	0.960433
1.254000	0.958179
1.255000	0.954314
1.256000	0.951094
1.257000	0.955603
1.258000	0.952382
1.259000	0.947551
1.260000	0.953992
1.261000	0.959467
1.262000	0.957857
1.263000	0.952060
1.264000	0.955281
1.265000	0.955603
1.266000	0.957213
1.267000	0.956891
1.268000	0.956891
1.269000	0.961077
1.270000	0.956891
1.271000	0.961077
1.272000	0.953670
1.273000	0.958179
1.274000	0.952382
1.275000	0.955603
1.276000	0.956247
1.277000	0.963010
1.278000	0.961722
1.279000	0.963010
1.280000	0.954636
1.281000	0.949162
1.282000	0.949806
1.283000	0.953992
1.284000	0.959145
1.285000	0.956891
1.286000	0.950772
1.287000	0.946585
1.288000	0.946263
1.289000	0.952060
1.290000	0.944653
1.291000	0.948517
1.292000	0.950128
1.293000	0.942076
1.294000	0.937246
1.295000	0.930805
1.296000	0.926296
1.297000	0.939178
1.298000	0.961077
1.299000	0.995537
1.300000	1.031607
1.301000	1.068321
1.302000	1.101814
1.303000	1.133697
1.304000	1.161072
1.305000	1.195209
1.306000	1.228702
1.307000	1.257365
1.308000	1.289892
1.309000	1.321775
1.310000	1.348828
1.311000	1.384575
1.312000	1.417425
1.313000	1.451884
1.314000	1.481191
1.315000	1.515328
1.316000	1.543347
1.317000	1.534652
1.318000	1.458325
1.319000	1.434493
1.320000	1.413238
1.321000	1.387474
1.322000	1.370727
1.323000	1.349472
1.324000	1.320165
1.325000	1.299232
1.326000	1.271857
1.327000	1.250924
1.328000	1.217431
1.329000	1.195531
1.330000	1.167835
1.331000	1.149478
1.332000	1.127256
1.333000	1.097627
1.334000	1.066710
1.335000	1.046099
1.336000	1.022589
1.337000	1.008097
1.338000	0.974604
1.339000	0.952060
1.340000	0.939178
1.341000	0.910515
1.342000	0.893447
1.343000	0.871225
1.344000	0.849970
1.345000	0.856411
1.346000	0.866072
1.347000	0.871869
1.348000	0.873801
1.349000	0.878954
1.350000	0.878310
1.351000	0.882819
1.352000	0.883785
1.353000	0.894091
1.354000	0.887972
1.355000	0.910837
1.356000	0.927906
1.357000	0.938856
1.358000	0.938534
1.359000	0.947551
1.360000	0.945297
1.361000	0.955603
1.362000	0.963332
1.363000	0.955281
1.364000	0.955603
1.365000	0.953670
1.366000	0.956569
1.367000	0.950128
1.368000	0.953348
1.369000	0.954314
1.370000	0.959789
1.371000	0.955925
1.372000	0.951416
1.373000	0.953992
1.374000	0.953026
1.375000	0.955925
1.376000	0.953348
1.377000	0.954636
1.378000	0.953348
1.379000	0.954314
1.380000	0.950450
1.381000	0.953026
1.382000	0.952060
1.383000	0.950450
1.384000	0.952382
1.385000	0.949484
1.386000	0.956247
1.387000	0.958823
1.388000	0.951416
1.389000	0.955281
1.390000	0.952704
1.391000	0.953992
1.392000	0.962044
1.393000	0.970417
1.394000	0.970739
1.395000	0.971061
1.396000	0.972349
1.397000	0.975248
1.398000	0.979112
1.399000	0.982655
1.400000	0.993927
1.401000	0.994571
1.402000	0.997791
1.403000	0.992639
1.404000	0.995215
1.405000	1.001978
1.406000	1.002622
1.407000	1.006809
1.408000	1.007131
1.409000	1.019047
1.410000	1.014860
1.411000	1.019691
1.412000	1.020013
1.413000	1.028386
1.414000	1.029352
1.415000	1.033539
1.416000	1.039014
1.417000	1.042234
1.418000	1.040946
1.419000	1.040624
1.420000	1.044489
1.421000	1.042234
1.422000	1.056727
1.423000	1.055439
1.424000	1.059947
1.425000	1.060591
1.426000	1.064456
1.427000	1.064134
1.428000	1.065744
1.429000	1.070575
1.430000	1.069609
1.431000	1.074440
1.432000	1.080881
1.433000	1.081847
1.434000	1.081203
1.435000	1.077338
1.436000	1.079915
1.437000	1.082491
1.438000	1.079592
1.439000	1.087000
1.440000	1.091186
1.441000	1.092152
1.442000	1.089254
1.443000	1.086033
1.444000	1.091830
1.445000	1.092475
1.446000	1.095695
1.447000	1.098594
1.448000	1.098916
1.449000	1.104068
1.450000	1.101170
1.451000	1.098916
1.452000	1.101170
1.453000	1.099882
1.454000	1.095373
1.455000	1.093441
1.456000	1.098594
1.457000	1.095695
1.458000	1.094085
1.459000	1.093763
1.460000	1.097627
1.461000	1.097949
1.462000	1.097627
1.463000	1.104712
1.464000	1.099238
1.465000	1.103102
1.466000	1.093763
1.467000	1.094085
1.468000	1.088610
1.469000	1.083779
1.470000	1.089898
1.471000	1.093441
1.472000	1.093763
1.473000	1.082813
1.474000	1.081525
1.475000	1.077016
1.476000	1.076694
1.477000	1.069287
1.478000	1.074118
1.479000	1.075084
1.480000	1.068965
1.481000	1.063812
1.482000	1.058659
1.483000	1.050930
1.484000	1.050286
1.485000	1.043201
1.486000	1.045777
1.487000	1.038048
1.488000	1.035471
1.489000	1.029030
1.490000	1.029352
1.491000	1.027742
1.492000	1.022911
1.493000	1.024522
1.494000	1.018081
1.495000	1.020013
1.496000	1.018081
1.497000	1.009707
1.498000	1.004232
1.499000	1.006487
1.500000	0.991994
1.501000	0.998757
1.502000	1.000690
1.503000	0.996503
1.504000	0.989418
1.505000	0.984265
1.506000	0.980078
1.507000	0.975248
1.508000	0.977824
1.509000	0.979434
1.510000	0.976214
1.511000	0.971705
1.512000	0.965908
1.513000	0.963010
1.514000	0.956891
1.515000	0.958823
1.516000	0.952704
1.517000	0.955603
1.518000	0.955281
1.519000	0.957857
1.520000	0.952060
1.521000	0.951738
1.522000	0.949806
1.523000	0.951094
1.524000	0.953026
1.525000	0.954314
1.526000	0.953026
1.527000	0.953348
1.528000	0.949806
1.529000	0.950128
1.530000	0.953670
1.531000	0.950128
1.532000	0.954636
1.533000	0.956891
1.534000	0.957213
1.535000	0.954636
1.536000	0.955281
1.537000	0.953026
1.538000	0.950772
1.539000	0.947551
1.540000	0.954958
1.541000	0.954314
1.542000	0.955925
1.543000	0.953348
1.544000	0.952382
1.545000	0.956569
1.546000	0.954636
1.547000	0.951738
1.548000	0.960433
1.549000	0.961077
1.550000	0.963010
1.551000	0.953670
1.552000	0.954636
1.553000	0.952060
1.554000	0.957213
1.555000	0.953992
1.556000	0.955925
1.557000	0.954958
1.558000	0.958501
1.559000	0.950772
1.560000	0.954636
1.561000	0.956569
1.562000	0.956891
1.563000	0.956891
1.564000	0.957213
1.565000	0.959467
1.566000	0.959145
1.567000	0.953670
1.568000	0.953992
1.569000	0.957213
1.570000	0.954958
1.571000	0.961077
1.572000	0.964620
1.573000	0.963010
1.574000	0.960755
1.575000	0.955281
1.576000	0.956891
1.577000	0.957213
1.578000	0.952704
1.579000	0.960111
1.580000	0.962688
1.581000	0.963332
1.582000	0.963010
1.583000	0.962044
1.584000	0.960433
1.585000	0.959145
1.586000	0.962688
1.587000	0.964942
1.588000	0.963654
1.589000	0.962688
1.590000	0.959789
1.591000	0.960433
1.592000	0.961077
1.593000	0.963654
1.594000	0.966552
1.595000	0.969451
1.596000	0.970739
1.597000	0.967518
1.598000	0.967841
1.599000	0.968807
1.600000	0.966230
1.601000	0.968485
1.602000	0.969773
1.603000	0.969451
1.604000	0.970417
1.605000	0.972027
1.606000	0.971061
1.607000	0.968163
1.608000	0.969773
1.609000	0.968807
1.610000	0.972671
1.611000	0.974604
1.612000	0.972027
1.613000	0.971061
1.614000	0.968163
1.615000	0.971061
1.616000	0.972027
1.617000	0.966874
1.618000	0.970095
1.619000	0.975248
1.620000	0.974604
1.621000	0.970739
1.622000	0.971383
1.623000	0.967841
1.624000	0.968163
1.625000	0.967841
1.626000	0.964942
1.627000	0.972027
1.628000	0.967518
1.629000	0.966552
1.630000	0.965908
1.631000	0.963654
1.632000	0.964620
1.633000	0.960433
1.634000	0.962366
1.635000	0.961722
1.636000	0.964620
1.637000	0.953992
1.638000	0.954958
1.639000	0.950772
1.640000	0.950128
1.641000	0.954314
1.642000	0.958179
1.643000	0.955603
1.644000	0.952060
1.645000	0.946907
1.646000	0.953670
1.647000	0.951738
1.648000	0.949484
1.649000	0.954958
1.650000	0.959789
1.651000	0.955281
1.652000	0.953348
1.653000	0.950450
1.654000	0.949806
1.655000	0.949484
1.656000	0.951738
1.657000	0.950450
1.658000	0.956569
1.659000	0.956891
1.660000	0.948517
1.661000	0.951738
1.662000	0.952704
1.663000	0.949162
1.664000	0.953992
1.665000	0.953026
1.666000	0.957213
1.667000	0.957213
1.668000	0.952060
1.669000	0.950450
1.670000	0.954314
1.671000	0.953026
1.672000	0.950772
1.673000	0.953348
1.674000	0.953670
1.675000	0.953348
1.676000	0.951416
1.677000	0.950450
1.678000	0.950772
1.679000	0.948839
1.680000	0.956891
1.681000	0.959145
1.682000	0.956247
1.683000	0.953348
1.684000	0.950450
1.685000	0.952382
1.686000	0.949484
1.687000	0.949484
1.688000	0.950450
1.689000	0.956569
1.690000	0.957535
1.691000	0.950772
1.692000	0.948839
1.693000	0.952382
1.694000	0.949806
1.695000	0.954636
1.696000	0.955281
1.697000	0.960111
1.698000	0.955603
1.699000	0.952704
1.700000	0.954314
1.701000	0.953348
1.702000	0.953026
1.703000	0.953026
1.704000	0.956247
1.705000	0.953992
1.706000	0.957857
1.707000	0.955603
1.708000	0.954958
1.709000	0.952382
1.710000	0.952704
1.711000	0.955925
1.712000	0.961077
1.713000	0.958501
1.714000	0.956891
1.715000	0.957213
1.716000	0.955281
1.717000	0.954314
1.718000	0.955603
1.719000	0.958501
1.720000	0.962044
1.721000	0.958501
1.722000	0.953348
1.723000	0.954636
1.724000	0.955925
1.725000	0.956569
1.726000	0.961077
1.727000	0.959145
1.728000	0.963010
1.729000	0.961722
1.730000	0.960755
1.731000	0.962044
1.732000	0.961399
1.733000	0.963332
1.734000	0.963976
1.735000	0.962044
1.736000	0.964298
1.737000	0.957535
1.738000	0.960755
1.739000	0.960111
1.740000	0.961399
1.741000	0.963332
1.742000	0.963654
1.743000	0.967196
1.744000	0.968163
1.745000	0.966552
1.746000	0.962044
1.747000	0.961399
1.748000	0.964298
1.749000	0.962366
1.750000	0.965264
1.751000	0.974604
1.752000	0.968485
1.753000	0.964942
1.754000	0.969129
1.755000	0.965908
1.756000	0.971705
1.757000	0.966230
1.758000	0.967841
1.759000	0.968163
1.760000	0.975248
1.761000	0.969129
1.762000	0.969773
1.763000	0.971061
1.764000	0.971383
1.765000	0.974282
1.766000	0.969451
1.767000	0.972993
1.768000	0.970739
1.769000	0.970417
1.770000	0.969773
1.771000	0.970739
1.772000	0.968485
1.773000	0.968163
1.774000	0.970095
1.775000	0.974604
1.776000	0.971705
1.777000	0.967518
1.778000	0.968807
1.779000	0.965908
1.780000	0.969129
1.781000	0.964942
1.782000	0.968807
1.783000	0.970095
1.784000	0.968163
1.785000	0.963010
1.786000	0.958179
1.787000	0.961722
1.788000	0.953348
1.789000	0.956569
1.790000	0.961722
1.791000	0.956569
1.792000	0.954314
1.793000	0.950772
1.794000	0.953992
1.795000	0.952382
1.796000	0.952382
1.797000	0.956891
1.798000	0.952382
1.799000	0.957857
1.800000	0.952060
1.801000	0.955603
1.802000	0.951416
1.803000	0.953992
1.804000	0.955603
1.805000	0.951094
1.806000	0.956569
1.807000	0.955603
1.808000	0.950128
1.809000	0.949162
1.810000	0.948517
1.811000	0.948517
1.812000	0.950450
1.813000	0.954314
1.814000	0.958501
1.815000	0.957535
1.816000	0.954958
1.817000	0.951094
1.818000	0.951416
1.819000	0.947873
1.820000	0.954636
1.821000	0.957857
1.822000	0.953348
1.823000	0.951416
1.824000	0.951738
1.825000	0.950128
1.826000	0.954314
1.827000	0.950450
1.828000	0.953992
1.829000	0.955603
1.830000	0.955281
1.831000	0.952382
1.832000	0.954314
1.833000	0.950450
1.834000	0.951738
1.835000	0.952060
1.836000	0.957857
1.837000	0.956247
1.838000	0.957213
1.839000	0.950450
1.840000	0.954636
1.841000	0.950450
1.842000	0.950128
1.843000	0.957857
1.844000	0.957857
1.845000	0.958501
1.846000	0.956569
1.847000	0.952704
1.848000	0.952382
1.849000	0.955925
1.850000	0.960111
1.851000	0.956247
1.852000	0.959467
1.853000	0.958501
1.854000	0.954958
1.855000	0.953670
1.856000	0.948195
1.857000	0.953992
1.858000	0.951094
1.859000	0.953348
1.860000	0.961077
1.861000	0.957857
1.862000	0.955925
1.863000	0.951416
1.864000	0.956247
1.865000	0.958501
1.866000	0.955281
1.867000	0.960111
1.868000	0.956247
1.869000	0.962366
1.870000	0.952704
1.871000	0.954958
1.872000	0.952060
1.873000	0.954314
1.874000	0.960755
1.875000	0.957535
1.876000	0.961722
1.877000	0.959789
1.878000	0.954636
1.879000	0.959789
1.880000	0.959467
1.881000	0.959789
1.882000	0.961399
1.883000	0.960111
1.884000	0.964298
1.885000	0.960755
1.886000	0.959789
1.887000	0.959467
1.888000	0.958501
1.889000	0.953670
1.890000	0.961077
1.891000	0.963654
1.892000	0.962366
1.893000	0.962044
1.894000	0.961399
1.895000	0.963976
1.896000	0.963010
1.897000	0.962688
1.898000	0.965264
1.899000	0.967518
1.900000	0.965264
1.901000	0.964942
1.902000	0.970417
1.903000	0.966230
1.904000	0.967196
1.905000	0.965908
1.906000	0.967841
1.907000	0.967841
1.908000	0.964620
1.909000	0.968485
1.910000	0.967841
1.911000	0.966874
1.912000	0.971705
1.913000	0.973315
1.914000	0.972993
1.915000	0.972993
1.916000	0.972671
1.917000	0.968807
1.918000	0.970095
1.919000	0.971061
1.920000	0.971705
1.921000	0.972993
1.922000	0.966874
1.923000	0.977502
1.924000	0.974604
1.925000	0.973637
1.926000	0.972671
1.927000	0.970095
1.928000	0.966874
1.929000	0.973960
1.930000	0.973315
1.931000	0.973315
1.932000	0.968807
1.933000	0.967196
1.934000	0.962688
1.935000	0.968807
1.936000	0.965264
1.937000	0.964298
1.938000	0.964298
1.939000	0.963976
1.940000	0.957535
1.941000	0.958501
1.942000	0.961077
1.943000	0.958501
1.944000	0.958179
1.945000	0.958501
1.946000	0.960755
1.947000	0.956569
1.948000	0.954314
1.949000	0.955281
1.950000	0.953026
1.951000	0.954636
1.952000	0.954314
1.953000	0.954636
1.954000	0.956247
1.955000	0.954958
1.956000	0.946585
1.957000	0.949806
1.958000	0.950128
1.959000	0.949806
1.960000	0.952060
1.961000	0.959789
1.962000	0.957213
1.963000	0.957213
1.964000	0.950450
1.965000	0.951094
1.966000	0.954958
1.967000	0.948195
1.968000	0.953348
1.969000	0.955603
1.970000	0.955925
1.971000	0.950128
1.972000	0.948195
1.973000	0.950772
1.974000	0.953348
1.975000	0.953670
1.976000	0.957535
1.977000	0.953348
1.978000	0.955925
1.979000	0.952382
1.980000	0.950450
1.981000	0.954314
1.982000	0.953992
1.983000	0.955281
1.984000	0.951094
1.985000	0.956247
1.986000	0.954636
1.987000	0.954636
1.988000	0.953348
1.989000	0.951738
1.990000	0.949484
1.991000	0.956891
1.992000	0.950772
1.993000	0.954636
1.994000	0.954636
1.995000	0.954314
1.996000	0.955925
1.997000	0.948839
1.998000	0.945297
1.999000	0.959467
2.000000	0.963332
2.001000	0.959789
2.002000	0.954636
2.003000	0.951416
2.004000	0.952060
2.005000	0.949484
2.006000	0.948517
2.007000	0.950772
2.008000	0.959467
2.009000	0.955603
2.010000	0.951738
2.011000	0.955603
2.012000	0.956247
2.013000	0.957857
2.014000	0.957857
2.015000	0.955603
2.016000	0.959145
2.017000	0.956569
2.018000	0.954958
2.019000	0.952382
2.020000	0.955281
2.021000	0.959145
2.022000	0.955603
2.023000	0.955603
2.024000	0.962366
2.025000	0.956569
2.026000	0.957213
2.027000	0.954314
2.028000	0.953348
2.029000	0.957857
2.030000	0.957213
2.031000	0.959789
2.032000	0.960111
2.033000	0.966552
2.034000	0.958823
2.035000	0.961722
2.036000	0.958501
2.037000	0.959145
2.038000	0.962688
2.039000	0.964942
2.040000	0.962044
2.041000	0.959789
2.042000	0.956891
2.043000	0.961722
2.044000	0.955925
2.045000	0.961722
2.046000	0.964620
2.047000	0.969129
2.048000	0.970417
2.049000	0.961722
2.050000	0.961722
2.051000	0.960433
2.052000	0.964298
2.053000	0.965586
2.054000	0.963976
2.055000	0.965908
2.056000	0.965586
2.057000	0.964620
2.058000	0.965586
2.059000	0.967518
2.060000	0.968485
2.061000	0.968807
2.062000	0.964298
2.063000	0.972027
2.064000	0.971383
2.065000	0.966874
2.066000	0.968163
2.067000	0.969129
2.068000	0.967518
2.069000	0.974282
2.070000	0.977502
2.071000	0.972349
2.072000	0.971061
2.073000	0.972993
2.074000	0.967518
2.075000	0.971383
2.076000	0.966874
2.077000	0.971061
2.078000	0.975248
2.079000	0.971383
2.080000	0.971383
2.081000	0.972671
2.082000	0.971061
2.083000	0.968163
2.084000	0.969129
2.085000	0.969129
2.086000	0.970095
2.087000	0.968485
2.088000	0.963654
2.089000	0.959789
2.090000	0.960111
2.091000	0.957213
2.092000	0.958501
2.093000	0.958823
2.094000	0.957213
2.095000	0.959789
2.096000	0.956247
2.097000	0.956569
2.098000	0.953670
2.099000	0.953348
2.100000	0.957213
2.101000	0.955281
2.102000	0.954958
2.103000	0.955925
2.104000	0.951738
2.105000	0.947873
2.106000	0.948517
2.107000	0.945297
2.108000	0.953026
2.109000	0.958823
2.110000	0.952060
2.111000	0.950772
2.112000	0.953026
2.113000	0.951738
2.114000	0.953348
2.115000	0.951738
2.116000	0.951416
2.117000	0.958823
2.118000	0.953670
2.119000	0.951416
2.120000	0.950128
2.121000	0.953992
2.122000	0.950450
2.123000	0.953670
2.124000	0.950772
2.125000	0.953026
2.126000	0.955281
2.127000	0.950128
2.128000	0.947551
2.129000	0.953026
2.130000	0.953348
2.131000	0.952704
2.132000	0.954636
2.133000	0.959467
2.134000	0.955925
2.135000	0.953026
2.136000	0.949162
2.137000	0.951094
2.138000	0.944653
2.139000	0.950128
2.140000	0.957213
2.141000	0.956247
2.142000	0.953026
2.143000	0.953348
2.144000	0.951738
2.145000	0.955603
2.146000	0.955925
2.147000	0.960755
2.148000	0.963654
2.149000	0.970095
2.150000	0.963332
2.151000	0.968163
2.152000	0.973960
2.153000	0.974926
2.154000	0.979112
2.155000	0.982333
2.156000	0.988774
2.157000	0.990706
2.158000	0.983943
2.159000	0.993605
2.160000	0.992961
2.161000	0.999402
2.162000	1.001978
2.163000	1.010029
2.164000	1.010995
2.165000	1.010351
2.166000	1.012928
2.167000	1.013250
2.168000	1.017436
2.169000	1.017436
2.170000	1.020657
2.171000	1.023233
2.172000	1.026776
2.173000	1.025166
2.174000	1.023555
2.175000	1.019691
2.176000	1.023233
2.177000	1.021945
2.178000	1.033217
2.179000	1.042234
2.180000	1.039014
2.181000	1.037404
2.182000	1.031929
2.183000	1.034827
2.184000	1.032251
2.185000	1.034183
2.186000	1.039336
2.187000	1.038370
2.188000	1.032895
2.189000	1.034183
2.190000	1.032895
2.191000	1.035471
2.192000	1.033539
2.193000	1.035793
2.194000	1.029997
2.195000	1.036115
2.196000	1.030641
2.197000	1.029030
2.198000	1.029997
2.199000	1.032573
2.200000	1.027420
2.201000	1.027742
2.202000	1.028064
2.203000	1.025166
2.204000	1.021945
2.205000	1.022267
2.206000	1.018725
2.207000	1.015504
2.208000	1.013250
2.209000	1.012928
2.210000	1.013572
2.211000	1.010673
2.212000	1.009063
2.213000	0.998435
2.214000	1.002622
2.215000	0.999724
2.216000	0.992961
2.217000	0.997469
2.218000	0.991672
2.219000	0.994571
2.220000	0.983621
2.221000	0.981045
2.222000	0.982655
2.223000	0.976858
2.224000	0.977824
2.225000	0.976536
2.226000	0.966874
2.227000	0.969773
2.228000	0.972027
2.229000	0.967518
2.230000	0.966552
2.231000	0.968163
2.232000	0.969129
2.233000	0.968485
2.234000	0.970739
2.235000	0.969129
2.236000	0.963976
2.237000	0.963654
2.238000	0.964942
2.239000	0.966874
2.240000	0.965586
2.241000	0.966552
2.242000	0.965908
2.243000	0.964942
2.244000	0.958823
2.245000	0.961077
2.246000	0.958823
2.247000	0.957535
2.248000	0.959145
2.249000	0.964620
2.250000	0.955603
2.251000	0.953026
2.252000	0.951416
2.253000	0.954958
2.254000	0.951094
2.255000	0.948195
2.256000	0.952060
2.257000	0.956247
2.258000	0.957213
2.259000	0.950450
2.260000	0.947551
2.261000	0.951738
2.262000	0.950450
2.263000	0.950128
2.264000	0.957213
2.265000	0.959467
2.266000	0.956569
2.267000	0.950450
2.268000	0.952060
2.269000	0.948195
2.270000	0.953026
2.271000	0.950450
2.272000	0.954314
2.273000	0.954314
2.274000	0.953026
2.275000	0.948517
2.276000	0.953992
2.277000	0.951738
2.278000	0.954958
2.279000	0.954958
2.280000	0.959789
2.281000	0.954314
2.282000	0.953670
2.283000	0.949484
2.284000	0.950772
2.285000	0.954314
2.286000	0.950772
2.287000	0.944331
2.288000	0.945941
2.289000	0.952382
2.290000	0.945297
2.291000	0.942076
2.292000	0.941432
2.293000	0.936279
2.294000	0.934669
2.295000	0.940466
2.296000	0.945619
2.297000	0.934991
2.298000	0.931771
2.299000	0.925974
2.300000	0.930160
2.301000	0.922109
2.302000	0.916312
2.303000	0.911159
2.304000	0.928872
2.305000	0.951094
2.306000	0.989740
2.307000	1.014216
2.308000	1.063812
2.309000	1.096017
2.310000	1.131765
2.311000	1.163648
2.312000	1.196175
2.313000	1.228380
2.314000	1.258009
2.315000	1.286672
2.316000	1.321453
2.317000	1.343031
2.318000	1.389728
2.319000	1.423544
2.320000	1.450274
2.321000	1.481191
2.322000	1.509854
2.323000	1.540771
2.324000	1.455105
2.325000	1.435138
2.326000	1.411950
2.327000	1.393915
2.328000	1.371693
2.329000	1.343675
2.330000	1.315978
2.331000	1.297299
2.332000	1.276044
2.333000	1.252856
2.334000	1.223872
2.335000	1.204871
2.336000	1.175564
2.337000	1.148512
2.338000	1.131121
2.339000	1.100848
2.340000	1.073151
2.341000	1.053828
2.342000	1.031285
2.343000	1.014860
2.344000	0.986842
2.345000	0.964620
2.346000	0.949162
2.347000	0.926618
2.348000	0.908583
2.349000	0.886361
2.350000	0.867360
2.351000	0.866394
2.352000	0.873479
2.353000	0.878954
2.354000	0.881531
2.355000	0.887972
2.356000	0.886039
2.357000	0.893769
2.358000	0.898277
2.359000	0.900532
2.360000	0.905685
2.361000	0.914702
2.362000	0.933059
2.363000	0.951416
2.364000	0.958501
2.365000	0.967196
2.366000	0.966230
2.367000	0.967841
2.368000	0.968163
2.369000	0.965586
2.370000	0.964942
2.371000	0.965586
2.372000	0.966552
2.373000	0.968807
2.374000	0.968163
2.375000	0.968485
2.376000	0.969773
2.377000	0.966552
2.378000	0.969451
2.379000	0.967518
2.380000	0.969451
2.381000	0.971705
2.382000	0.972349
2.383000	0.972671
2.384000	0.968485
2.385000	0.967841
2.386000	0.966230
2.387000	0.961399
2.388000	0.964942
2.389000	0.971383
2.390000	0.970095
2.391000	0.967518
2.392000	0.964942
2.393000	0.963332
2.394000	0.962366
2.395000	0.964942
2.396000	0.964298
2.397000	0.967518
2.398000	0.968163
2.399000	0.962044
2.400000	0.966874
2.401000	0.968163
2.402000	0.970739
2.403000	0.979112
2.404000	0.978790
2.405000	0.986520
2.406000	0.983299
2.407000	0.987486
2.408000	0.980723
2.409000	0.992316
2.410000	0.992639
2.411000	0.991994
2.412000	0.999402
2.413000	1.003266
2.414000	1.007453
2.415000	1.003910
2.416000	1.007453
2.417000	1.007131
2.418000	1.017436
2.419000	1.016792
2.420000	1.022911
2.421000	1.023233
2.422000	1.029352
2.423000	1.027420
2.424000	1.026454
2.425000	1.029997
2.426000	1.027742
2.427000	1.042879
2.428000	1.047387
2.429000	1.048353
2.430000	1.048353
2.431000	1.052218
2.432000	1.054794
2.433000	1.054150
2.434000	1.057693
2.435000	1.060269
2.436000	1.062846
2.437000	1.069609
2.438000	1.066710
2.439000	1.064778
2.440000	1.064134
2.441000	1.074440
2.442000	1.070897
2.443000	1.076050
2.444000	1.074440
2.445000	1.077660
2.446000	1.073796
2.447000	1.081203
2.448000	1.078948
2.449000	1.081203
2.450000	1.086678
2.451000	1.082169
2.452000	1.084101
2.453000	1.088288
2.454000	1.084745
2.455000	1.082169
2.456000	1.084101
2.457000	1.080237
2.458000	1.086356
2.459000	1.095373
2.460000	1.088610
2.461000	1.082491
2.462000	1.080559
2.463000	1.080237
2.464000	1.082491
2.465000	1.079592
2.466000	1.087322
2.467000	1.089254
2.468000	1.087000
2.469000	1.082813
2.470000	1.077660
2.471000	1.086033
2.472000	1.079592
2.473000	1.073796
2.474000	1.075084
2.475000	1.082491
2.476000	1.079592
2.477000	1.072185
2.478000	1.077016
2.479000	1.073796
2.480000	1.068321
2.481000	1.070575
2.482000	1.075406
2.483000	1.068321
2.484000	1.070575
2.485000	1.063812
2.486000	1.058659
2.487000	1.058659
2.488000	1.060269
2.489000	1.051574
2.490000	1.050930
2.491000	1.048675
2.492000	1.051252
2.493000	1.043201
2.494000	1.039336
2.495000	1.036438
2.496000	1.033217
2.497000	1.040624
2.498000	1.040946
2.499000	1.038048
2.500000	1.028064
2.501000	1.027742
2.502000	1.017114
2.503000	1.023233
2.504000	1.010995
2.505000	1.014216
2.506000	1.008741
2.507000	1.011962
2.508000	1.004554
2.509000	0.998757
2.510000	1.001978
2.511000	0.999080
2.512000	0.998757
2.513000	0.988130
2.514000	0.996825
2.515000	0.991350
2.516000	0.986842
2.517000	0.981689
2.518000	0.976858
2.519000	0.978468
2.520000	0.974282
2.521000	0.975248
2.522000	0.977180
2.523000	0.966552
2.524000	0.968163
2.525000	0.967841
2.526000	0.963654
2.527000	0.964942
2.528000	0.965908
2.529000	0.975570
2.530000	0.970095
2.531000	0.970739
2.532000	0.977824
2.533000	0.972993
2.534000	0.971705
2.535000	0.967841
2.536000	0.971061
2.537000	0.976536
2.538000	0.972671
2.539000	0.970739
2.540000	0.966874
2.541000	0.969773
2.542000	0.970739
2.543000	0.970417
2.544000	0.969451
2.545000	0.969773
2.546000	0.971705
2.547000	0.968485
2.548000	0.965908
2.549000	0.962044
2.550000	0.960755
2.551000	0.961722
2.552000	0.964298
2.553000	0.963010
2.554000	0.963010
2.555000	0.954314
2.556000	0.954314
2.557000	0.951416
2.558000	0.950772
2.559000	0.954314
2.560000	0.955281
2.561000	0.959789
2.562000	0.951416
2.563000	0.953026
2.564000	0.948839
2.565000	0.954958
2.566000	0.946263
2.567000	0.952382
2.568000	0.960755
2.569000	0.957857
2.570000	0.951094
2.571000	0.952382
2.572000	0.949162
2.573000	0.950772
2.574000	0.947229
2.575000	0.955925
2.576000	0.956247
2.577000	0.953992
2.578000	0.950772
2.579000	0.949806
2.580000	0.950128
2.581000	0.951738
2.582000	0.955281
2.583000	0.955925
2.584000	0.956247
2.585000	0.952704
2.586000	0.953026
2.587000	0.949806
2.588000	0.943687
2.589000	0.951416
2.590000	0.950772
2.591000	0.951416
2.592000	0.953670
2.593000	0.953348
2.594000	0.951094
2.595000	0.949162
2.596000	0.953992
2.597000	0.949484
2.598000	0.949806
2.599000	0.956247
2.600000	0.953992
2.601000	0.954314
2.602000	0.952060
2.603000	0.951416
2.604000	0.950128
2.605000	0.947229
2.606000	0.953348
2.607000	0.957535
2.608000	0.955281
2.609000	0.953992
2.610000	0.951094
2.611000	0.949806
2.612000	0.953026
2.613000	0.951416
2.614000	0.955603
2.615000	0.959467
2.616000	0.958501
2.617000	0.954314
2.618000	0.952060
2.619000	0.957535
2.620000	0.953348
2.621000	0.951738
2.622000	0.952382
2.623000	0.958179
2.624000	0.954636
2.625000	0.952704
2.626000	0.951094
2.627000	0.952704
2.628000	0.953348
2.629000	0.955281
2.630000	0.959145
2.631000	0.957857
2.632000	0.959789
2.633000	0.958823
2.634000	0.958501
2.635000	0.955925
2.636000	0.953026
2.637000	0.959789
2.638000	0.964942
2.639000	0.957857
2.640000	0.955281
2.641000	0.954636
2.642000	0.959467
2.643000	0.956247
2.644000	0.955281
2.645000	0.958501
2.646000	0.964298
2.647000	0.963976
2.648000	0.957535
2.649000	0.960433
2.650000	0.957857
2.651000	0.958823
2.652000	0.961399
2.653000	0.957213
2.654000	0.964298
2.655000	0.963976
2.656000	0.961077
2.657000	0.956247
2.658000	0.959789
2.659000	0.963010
2.660000	0.961722
2.661000	0.962366
2.662000	0.964620
2.663000	0.966230
2.664000	0.963332
2.665000	0.963010
2.666000	0.966552
2.667000	0.966874
2.668000	0.967841
2.669000	0.967841
2.670000	0.970417
2.671000	0.965264
2.672000	0.964298
2.673000	0.969773
2.674000	0.964942
2.675000	0.960755
2.676000	0.970095
2.677000	0.973637
2.678000	0.972027
2.679000	0.974604
2.680000	0.970095
2.681000	0.969773
2.682000	0.974282
2.683000	0.971705
2.684000	0.967196
2.685000	0.974926
2.686000	0.973637
2.687000	0.967841
2.688000	0.973315
2.689000	0.971705
2.690000	0.972027
2.691000	0.971061
2.692000	0.970417
2.693000	0.973315
2.694000	0.972027
2.695000	0.968807
2.696000	0.971061
2.697000	0.969773
2.698000	0.971383
2.699000	0.966874
2.700000	0.967841
2.701000	0.965908
2.702000	0.968163
2.703000	0.957535
2.704000	0.958501
2.705000	0.959145
2.706000	0.958179
2.707000	0.957857
2.708000	0.963976
2.709000	0.956569
2.710000	0.956247
2.711000	0.953348
2.712000	0.950772
2.713000	0.951738
2.714000	0.950772
2.715000	0.951094
2.716000	0.957213
2.717000	0.955603
2.718000	0.949162
2.719000	0.950772
2.720000	0.952704
2.721000	0.948195
2.722000	0.950128
2.723000	0.951738
2.724000	0.954314
2.725000	0.951094
2.726000	0.953992
2.727000	0.953992
2.728000	0.952382
2.729000	0.955603
2.730000	0.953670
2.731000	0.957213
2.732000	0.953992
2.733000	0.955281
2.734000	0.950772
2.735000	0.954958
2.736000	0.950128
2.737000	0.949806
2.738000	0.948195
2.739000	0.951416
2.740000	0.950772
2.741000	0.954636
2.742000	0.951416
2.743000	0.950450
2.744000	0.953026
2.745000	0.945619
2.746000	0.952704
2.747000	0.954636
2.748000	0.957213
2.749000	0.955603
2.750000	0.950128
2.751000	0.956891
2.752000	0.956891
2.753000	0.951416
2.754000	0.951738
2.755000	0.954636
2.756000	0.956891
2.757000	0.953026
2.758000	0.951738
2.759000	0.950450
2.760000	0.949806
2.761000	0.950128
2.762000	0.955281
2.763000	0.956569
2.764000	0.955925
2.765000	0.952382
2.766000	0.952704
2.767000	0.957213
2.768000	0.952382
2.769000	0.955925
2.770000	0.957535
2.771000	0.956569
2.772000	0.957535
2.773000	0.948195
2.774000	0.952704
2.775000	0.956891
2.776000	0.953026
2.777000	0.955925
2.778000	0.959789
2.779000	0.962044
2.780000	0.960755
2.781000	0.952060
2.782000	0.956247
2.783000	0.955925
2.784000	0.953992
2.785000	0.957857
2.786000	0.960111
2.787000	0.959467
2.788000	0.956891
2.789000	0.957857
2.790000	0.957213
2.791000	0.957857
2.792000	0.956569
2.793000	0.954636
2.794000	0.960755
2.795000	0.964298
2.796000	0.960111
2.797000	0.957535
2.798000	0.959145
2.799000	0.957535
2.800000	0.959789
2.801000	0.963654
2.802000	0.964298
2.803000	0.963010
2.804000	0.959145
2.805000	0.957213
2.806000	0.955925
2.807000	0.960111
2.808000	0.961077
2.809000	0.964620
2.810000	0.964298
2.811000	0.966874
2.812000	0.964298
2.813000	0.965908
2.814000	0.963654
2.815000	0.961399
2.816000	0.965586
2.817000	0.971383
2.818000	0.966874
2.819000	0.966874
2.820000	0.960755
2.821000	0.962688
2.822000	0.965908
2.823000	0.965908
2.824000	0.965264
2.825000	0.972349
2.826000	0.970095
2.827000	0.966874
2.828000	0.973637
2.829000	0.973960
2.830000	0.971061
2.831000	0.970739
2.832000	0.967841
2.833000	0.975248
2.834000	0.974604
2.835000	0.971383
2.836000	0.966874
2.837000	0.970095
2.838000	0.969129
2.839000	0.972671
2.840000	0.972027
2.841000	0.971061
2.842000	0.973960
2.843000	0.969773
2.844000	0.969451
2.845000	0.971383
2.846000	0.973960
2.847000	0.968807
2.848000	0.977502
2.849000	0.973960
2.850000	0.971705
2.851000	0.967518
2.852000	0.964942
2.853000	0.963332
2.854000	0.962366
2.855000	0.962366
2.856000	0.967841
2.857000	0.960433
2.858000	0.958823
2.859000	0.956247
2.860000	0.957535
2.861000	0.956247
2.862000	0.953992
2.863000	0.953670
2.864000	0.958823
2.865000	0.955281
2.866000	0.953992
2.867000	0.953348
2.868000	0.950450
2.869000	0.951094
2.870000	0.952704
2.871000	0.953992
2.872000	0.953670
2.873000	0.954314
2.874000	0.953026
2.875000	0.950128
2.876000	0.953348
2.877000	0.953992
2.878000	0.953026
2.879000	0.950772
2.880000	0.956247
2.881000	0.955603
2.882000	0.952704
2.883000	0.950450
2.884000	0.950772
2.885000	0.943687
2.886000	0.954636
2.887000	0.960111
2.888000	0.952704
2.889000	0.955281
2.890000	0.947873
2.891000	0.950450
2.892000	0.950772
2.893000	0.952060
2.894000	0.951094
2.895000	0.952704
2.896000	0.956891
2.897000	0.952060
2.898000	0.951094
2.899000	0.951738
2.900000	0.953026
2.901000	0.954314
2.902000	0.953026
2.903000	0.957535
2.904000	0.951416
2.905000	0.951094
2.906000	0.952382
2.907000	0.948839
2.908000	0.951094
2.909000	0.951738
2.910000	0.951094
2.911000	0.956569
2.912000	0.961077
2.913000	0.950128
2.914000	0.949484
2.915000	0.951094
2.916000	0.955925
2.917000	0.952704
2.918000	0.951738
2.919000	0.954636
2.920000	0.955603
2.921000	0.947873
2.922000	0.950772
2.923000	0.951416
2.924000	0.949484
2.925000	0.953992
2.926000	0.963332
2.927000	0.961077
2.928000	0.955281
2.929000	0.956247
2.930000	0.955603
2.931000	0.954314
2.932000	0.953348
2.933000	0.955603
2.934000	0.961722
2.935000	0.959789
2.936000	0.955281
2.937000	0.956569
2.938000	0.953992
2.939000	0.955281
2.940000	0.957213
2.941000	0.958501
2.942000	0.955925
2.943000	0.960433
2.944000	0.957535
2.945000	0.958179
2.946000	0.955925
2.947000	0.958179
2.948000	0.962044
2.949000	0.962688
2.950000	0.960755
2.951000	0.964298
2.952000	0.961077
2.953000	0.955925
2.954000	0.961722
2.955000	0.954636
2.956000	0.962688
2.957000	0.966552
2.958000	0.964942
2.959000	0.962366
2.960000	0.958179
2.961000	0.960111
2.962000	0.960755
2.963000	0.958179
2.964000	0.965908
2.965000	0.969773
2.966000	0.964620
2.967000	0.962688
2.968000	0.961399
2.969000	0.964298
2.970000	0.963332
2.971000	0.963654
2.972000	0.967196
2.973000	0.966552
2.974000	0.968485
2.975000	0.967841
2.976000	0.963976
2.977000	0.963976
2.978000	0.965586
2.979000	0.965908
2.980000	0.968485
2.981000	0.971383
2.982000	0.971705
2.983000	0.970739
2.984000	0.968807
2.985000	0.967841
2.986000	0.970739
2.987000	0.971061
2.988000	0.973315
2.989000	0.970739
2.990000	0.972671
2.991000	0.970417
2.992000	0.970417
2.993000	0.970739
2.994000	0.964620
2.995000	0.972671
2.996000	0.974604
2.997000	0.974282
2.998000	0.975248
2.999000	0.972349
3.000000	0.966874
3.001000	0.968485
3.002000	0.965908
3.003000	0.968807
3.004000	0.968807
3.005000	0.964942
3.006000	0.964942
3.007000	0.961077
3.008000	0.960111
3.009000	0.958823
3.010000	0.962366
3.011000	0.959145
3.012000	0.963654
3.013000	0.960111
3.014000	0.957213
3.015000	0.954314
3.016000	0.956569
3.017000	0.957213
3.018000	0.953670
3.019000	0.955281
3.020000	0.957535
3.021000	0.953670
3.022000	0.950450
3.023000	0.946263
3.024000	0.953348
3.025000	0.949806
3.026000	0.950450
3.027000	0.957535
3.028000	0.954958
3.029000	0.956891
3.030000	0.950128
3.031000	0.952382
3.032000	0.955281
3.033000	0.949162
3.034000	0.953992
3.035000	0.957535
3.036000	0.955925
3.037000	0.951094
3.038000	0.955603
3.039000	0.949806
3.040000	0.950128
3.041000	0.951416
3.042000	0.950772
3.043000	0.954636
3.044000	0.956247
3.045000	0.948839
3.046000	0.953670
3.047000	0.953992
3.048000	0.954958
3.049000	0.954636
3.050000	0.956247
3.051000	0.947873
3.052000	0.952382
3.053000	0.953670
3.054000	0.948517
3.055000	0.952060
3.056000	0.951416
3.057000	0.953026
3.058000	0.951416
3.059000	0.954314
3.060000	0.958501
3.061000	0.954314
3.062000	0.949806
3.063000	0.951416
3.064000	0.951094
3.065000	0.953348
3.066000	0.959789
3.067000	0.956569
3.068000	0.955603
3.069000	0.953026
3.070000	0.953992
3.071000	0.950128
3.072000	0.955281
3.073000	0.951416
3.074000	0.957857
3.075000	0.954636
3.076000	0.951416
3.077000	0.952382
3.078000	0.951416
3.079000	0.953348
3.080000	0.956891
3.081000	0.957213
3.082000	0.959789
3.083000	0.954636
3.084000	0.954314
3.085000	0.955925
3.086000	0.956247
3.087000	0.954958
3.088000	0.958179
3.089000	0.958501
3.090000	0.954958
3.091000	0.957857
3.092000	0.955281
3.093000	0.955281
3.094000	0.956247
3.095000	0.958179
3.096000	0.958179
3.097000	0.964298
3.098000	0.960111
3.099000	0.966230
3.100000	0.955281
3.101000	0.958179
3.102000	0.955603
3.103000	0.953026
3.104000	0.959789
3.105000	0.963976
3.106000	0.962044
3.107000	0.956891
3.108000	0.955925
3.109000	0.957213
3.110000	0.956569
3.111000	0.960111
3.112000	0.961077
3.113000	0.965908
3.114000	0.962366
3.115000	0.960433
3.116000	0.959145
3.117000	0.962044
3.118000	0.965264
3.119000	0.962044
3.120000	0.963332
3.121000	0.967841
3.122000	0.967841
3.123000	0.961399
3.124000	0.963654
3.125000	0.962688
3.126000	0.966874
3.127000	0.967518
3.128000	0.965586
3.129000	0.973637
3.130000	0.972993
3.131000	0.964620
3.132000	0.963976
3.133000	0.970095
3.134000	0.966552
3.135000	0.967518
3.136000	0.973960
3.137000	0.970095
3.138000	0.969129
3.139000	0.963010
3.140000	0.966874
3.141000	0.970417
3.142000	0.963976
3.143000	0.970739
3.144000	0.975570
3.145000	0.977502
3.146000	0.971383
3.147000	0.969773
3.148000	0.969129
3.149000	0.970739
3.150000	0.968163
3.151000	0.976536
3.152000	0.973637
3.153000	0.976536
3.154000	0.973315
3.155000	0.974926
3.156000	0.974604
3.157000	0.979434
3.158000	0.976214
3.159000	0.987808
3.160000	0.986197
3.161000	0.993927
3.162000	0.989418
3.163000	0.991994
3.164000	0.994571
3.165000	0.993927
3.166000	1.000368
3.167000	1.001656
3.168000	1.004876
3.169000	1.006165
3.170000	1.004554
3.171000	1.004554
3.172000	1.005199
3.173000	1.003910
3.174000	1.012284
3.175000	1.014538
3.176000	1.015826
3.177000	1.017759
3.178000	1.014216
3.179000	1.024200
3.180000	1.022267
3.181000	1.021301
3.182000	1.026454
3.183000	1.030963
3.184000	1.027420
3.185000	1.025810
3.186000	1.026132
3.187000	1.025810
3.188000	1.028708
3.189000	1.029997
3.190000	1.029352
3.191000	1.031285
3.192000	1.030641
3.193000	1.028064
3.194000	1.028386
3.195000	1.029030
3.196000	1.030319
3.197000	1.034827
3.198000	1.033217
3.199000	1.032573
3.200000	1.032251
3.201000	1.020657
3.202000	1.021623
3.203000	1.021945
3.204000	1.020979
3.205000	1.022589
3.206000	1.029352
3.207000	1.021301
3.208000	1.015182
3.209000	1.013572
3.210000	1.010995
3.211000	1.006165
3.212000	1.007131
3.213000	1.006165
3.214000	1.007131
3.215000	1.010029
3.216000	1.003910
3.217000	1.001334
3.218000	0.994571
3.219000	0.992639
3.220000	0.986520
3.221000	0.987808
3.222000	0.986197
3.223000	0.982655
3.224000	0.978146
3.225000	0.969451
3.226000	0.972993
3.227000	0.963976
3.228000	0.962688
3.229000	0.967196
3.230000	0.965586
3.231000	0.964620
3.232000	0.953348
3.233000	0.956569
3.234000	0.954314
3.235000	0.953992
3.236000	0.956569
3.237000	0.952060
3.238000	0.957535
3.239000	0.953348
3.240000	0.953026
3.241000	0.953670
3.242000	0.958179
3.243000	0.949484
3.244000	0.960755
3.245000	0.962044
3.246000	0.959789
3.247000	0.954958
3.248000	0.954314
3.249000	0.956247
3.250000	0.957535
3.251000	0.953026
3.252000	0.958501
3.253000	0.958501
3.254000	0.956569
3.255000	0.955925
3.256000	0.955281
3.257000	0.957535
3.258000	0.957535
3.259000	0.958179
3.260000	0.957857
3.261000	0.961077
3.262000	0.962366
3.263000	0.957857
3.264000	0.958501
3.265000	0.958179
3.266000	0.959467
3.267000	0.962688
3.268000	0.961077
3.269000	0.960433
3.270000	0.963010
3.271000	0.958501
3.272000	0.956891
3.273000	0.959467
3.274000	0.955925
3.275000	0.958501
3.276000	0.966552
3.277000	0.967841
3.278000	0.965908
3.279000	0.968485
3.280000	0.963010
3.281000	0.965264
3.282000	0.963010
3.283000	0.965586
3.284000	0.969773
3.285000	0.966874
3.286000	0.966230
3.287000	0.964620
3.288000	0.963654
3.289000	0.967841
3.290000	0.964942
3.291000	0.970739
3.292000	0.975248
3.293000	0.964942
3.294000	0.961077
3.295000	0.959789
3.296000	0.956891
3.297000	0.961077
3.298000	0.965908
3.299000	0.961399
3.300000	0.962366
3.301000	0.959467
3.302000	0.957857
3.303000	0.954958
3.304000	0.949806
3.305000	0.950450
3.306000	0.945297
3.307000	0.943365
3.308000	0.937568
3.309000	0.927584
3.310000	0.924364
3.311000	0.947229
3.312000	0.972993
3.313000	1.008419
3.314000	1.040302
3.315000	1.089576
3.316000	1.111476
3.317000	1.140460
3.318000	1.170411
3.319000	1.202294
3.320000	1.231601
3.321000	1.259297
3.322000	1.290536
3.323000	1.324674
3.324000	1.354303
3.325000	1.383287
3.326000	1.416136
3.327000	1.444477
3.328000	1.483445
3.329000	1.515328
3.330000	1.545279
3.331000	1.451562
3.332000	1.430307
3.333000	1.401000
3.334000	1.382321
3.335000	1.363642
3.336000	1.335302
3.337000	1.313080
3.338000	1.293435
3.339000	1.270247
3.340000	1.253822
3.341000	1.211634
3.342000	1.196175
3.343000	1.157529
3.344000	1.142070
3.345000	1.126934
3.346000	1.100526
3.347000	1.073796
3.348000	1.052862
3.349000	1.025810
3.350000	1.005843
3.351000	0.975570
3.352000	0.950772
3.353000	0.940788
3.354000	0.917600
3.355000	0.899566
3.356000	0.868971
3.357000	0.851580
3.358000	0.855122
3.359000	0.861563
3.360000	0.871869
3.361000	0.869937
3.362000	0.883463
3.363000	0.883463
3.364000	0.887006
3.365000	0.886684
3.366000	0.889582
3.367000	0.887972
3.368000	0.906651
3.369000	0.928872
3.370000	0.941754
3.371000	0.948195
3.372000	0.952060
3.373000	0.948839
3.374000	0.953348
3.375000	0.952704
3.376000	0.953992
3.377000	0.954958
3.378000	0.956569
3.379000	0.954636
3.380000	0.953026
3.381000	0.953348
3.382000	0.953026
3.383000	0.948839
3.384000	0.956247
3.385000	0.961399
3.386000	0.957213
3.387000	0.955925
3.388000	0.957213
3.389000	0.952704
3.390000	0.954314
3.391000	0.952382
3.392000	0.956247
3.393000	0.958823
3.394000	0.958823
3.395000	0.955281
3.396000	0.952382
3.397000	0.955281
3.398000	0.955281
3.399000	0.957857
3.400000	0.958179
3.401000	0.961077
3.402000	0.960755
3.403000	0.957535
3.404000	0.958501
3.405000	0.959789
3.406000	0.965586
3.407000	0.966874
3.408000	0.969773
3.409000	0.977180
3.410000	0.980401
3.411000	0.981689
3.412000	0.991994
3.413000	0.992961
3.414000	0.993605
3.415000	0.999080
3.416000	1.001012
3.417000	1.003588
3.418000	1.007131
3.419000	1.005843
3.420000	1.009063
3.421000	1.016470
3.422000	1.017436
3.423000	1.020979
3.424000	1.026776
3.425000	1.033539
3.426000	1.031607
3.427000	1.033217
3.428000	1.037404
3.429000	1.045455
3.430000	1.041912
3.431000	1.044811
3.432000	1.054472
3.433000	1.056083
3.434000	1.051896
3.435000	1.059625
3.436000	1.063812
3.437000	1.063168
3.438000	1.068965
3.439000	1.070253
3.440000	1.069931
3.441000	1.076050
3.442000	1.077338
3.443000	1.076050
3.444000	1.078626
3.445000	1.077338
3.446000	1.088610
3.447000	1.087966
3.448000	1.089898
3.449000	1.091508
3.450000	1.087000
3.451000	1.089576
3.452000	1.094085
3.453000	1.088288
3.454000	1.096661
3.455000	1.102780
3.456000	1.099882
3.457000	1.099882
3.458000	1.099238
3.459000	1.095051
3.460000	1.103424
3.461000	1.100526
3.462000	1.101492
3.463000	1.106001
3.464000	1.106001
3.465000	1.104068
3.466000	1.096661
3.467000	1.095373
3.468000	1.087000
3.469000	1.088610
3.470000	1.089898
3.471000	1.094085
3.472000	1.087644
3.473000	1.084423
3.474000	1.081847
3.475000	1.080559
3.476000	1.085389
3.477000	1.085711
3.478000	1.083457
3.479000	1.086033
3.480000	1.075406
3.481000	1.076694
3.482000	1.072507
3.483000	1.071219
3.484000	1.075728
3.485000	1.078626
3.486000	1.069931
3.487000	1.069609
3.488000	1.068321
3.489000	1.067354
3.490000	1.059625
3.491000	1.056083
3.492000	1.054150
3.493000	1.054794
3.494000	1.059625
3.495000	1.056405
3.496000	1.051574
3.497000	1.045777
3.498000	1.040302
3.499000	1.040624
3.500000	1.033539
3.501000	1.039658
3.502000	1.029997
3.503000	1.035471
3.504000	1.032251
3.505000	1.020335
3.506000	1.023555
3.507000	1.015182
3.508000	1.019369
3.509000	1.012606
3.510000	1.015826
3.511000	1.004876
3.512000	1.003588
3.513000	0.997147
3.514000	0.995859
3.515000	0.991350
3.516000	0.993283
3.517000	0.992961
3.518000	0.988452
3.519000	0.988774
3.520000	0.981689
3.521000	0.979112
3.522000	0.975570
3.523000	0.973315
3.524000	0.963654
3.525000	0.966874
3.526000	0.967518
3.527000	0.962688
3.528000	0.956247
3.529000	0.955925
3.530000	0.950128
3.531000	0.948839
3.532000	0.953670
3.533000	0.959145
3.534000	0.960111
3.535000	0.959145
3.536000	0.953348
3.537000	0.953026
3.538000	0.952382
3.539000	0.954958
3.540000	0.953348
3.541000	0.957213
3.542000	0.954958
3.543000	0.952382
3.544000	0.953670
3.545000	0.958501
3.546000	0.962044
3.547000	0.953670
3.548000	0.956891
3.549000	0.956569
3.550000	0.959467
3.551000	0.955281
3.552000	0.955603
3.553000	0.958179
3.554000	0.955281
3.555000	0.959467
3.556000	0.956569
3.557000	0.962044
3.558000	0.958823
3.559000	0.955281
3.560000	0.954314
3.561000	0.958501
3.562000	0.953026
3.563000	0.961722
3.564000	0.963654
3.565000	0.964298
3.566000	0.961077
3.567000	0.956891
3.568000	0.962044
3.569000	0.960433
3.570000	0.956247
3.571000	0.963654
3.572000	0.964298
3.573000	0.965586
3.574000	0.960111
3.575000	0.957213
3.576000	0.958501
3.577000	0.959145
3.578000	0.964298
3.579000	0.963976
3.580000	0.965586
3.581000	0.965264
3.582000	0.966874
3.583000	0.963010
3.584000	0.963654
3.585000	0.965908
3.586000	0.966230
3.587000	0.966230
3.588000	0.965264
3.589000	0.967196
3.590000	0.962688
3.591000	0.966552
3.592000	0.966230
3.593000	0.965264
3.594000	0.970417
3.595000	0.974604
3.596000	0.975248
3.597000	0.973315
3.598000	0.967196
3.599000	0.972349
3.600000	0.971383
3.601000	0.963976
3.602000	0.970417
3.603000	0.974282
3.604000	0.973637
3.605000	0.974926
3.606000	0.968163
3.607000	0.971383
3.608000	0.970739
3.609000	0.970095
3.610000	0.972671
3.611000	0.975248
3.612000	0.971705
3.613000	0.967841
3.614000	0.968807
3.615000	0.971383
3.616000	0.966230
3.617000	0.969451
3.618000	0.967841
3.619000	0.966552
3.620000	0.966552
3.621000	0.961722
3.622000	0.957857
3.623000	0.958823
3.624000	0.956569
3.625000	0.962366
3.626000	0.961399
3.627000	0.961077
3.628000	0.962366
3.629000	0.954314
3.630000	0.952382
3.631000	0.954958
3.632000	0.950450
3.633000	0.957213
3.634000	0.961077
3.635000	0.958823
3.636000	0.954636
3.637000	0.953026
3.638000	0.948839
3.639000	0.953992
3.640000	0.948517
3.641000	0.950128
3.642000	0.952382
3.643000	0.954958
3.644000	0.951094
3.645000	0.950128
3.646000	0.952060
3.647000	0.951416
3.648000	0.951738
3.649000	0.955603
3.650000	0.953348
3.651000	0.950450
3.652000	0.953992
3.653000	0.949806
3.654000	0.952704
3.655000	0.949484
3.656000	0.951416
3.657000	0.953992
3.658000	0.957857
3.659000	0.953026
3.660000	0.952060
3.661000	0.947551
3.662000	0.953026
3.663000	0.954958
3.664000	0.955603
3.665000	0.961399
3.666000	0.957857
3.667000	0.959789
3.668000	0.953026
3.669000	0.954636
3.670000	0.952060
3.671000	0.953026
3.672000	0.951416
3.673000	0.960433
3.674000	0.953992
3.675000	0.951094
3.676000	0.951094
3.677000	0.955925
3.678000	0.952382
3.679000	0.955925
3.680000	0.956247
3.681000	0.960433
3.682000	0.958501
3.683000	0.953992
3.684000	0.951094
3.685000	0.958179
3.686000	0.951416
3.687000	0.952060
3.688000	0.956569
3.689000	0.953348
3.690000	0.952382
3.691000	0.952382
3.692000	0.957535
3.693000	0.952382
3.694000	0.956891
3.695000	0.959145
3.696000	0.953670
3.697000	0.959467
3.698000	0.956891
3.699000	0.952704
3.700000	0.955603
3.701000	0.953670
3.702000	0.948517
3.703000	0.957213
3.704000	0.965264
3.705000	0.959145
3.706000	0.954958
3.707000	0.957535
3.708000	0.955281
3.709000	0.953348
3.710000	0.955603
3.711000	0.958501
3.712000	0.962688
3.713000	0.958179
3.714000	0.961399
3.715000	0.955603
3.716000	0.961077
3.717000	0.957213
3.718000	0.963010
3.719000	0.961077
3.720000	0.962366
3.721000	0.961399
3.722000	0.956891
3.723000	0.958501
3.724000	0.960111
3.725000	0.959467
3.726000	0.959145
3.727000	0.965586
3.728000	0.966552
3.729000	0.968485
3.730000	0.961399
3.731000	0.963010
3.732000	0.962044
3.733000	0.962688
3.734000	0.967196
3.735000	0.966874
3.736000	0.967518
3.737000	0.967841
3.738000	0.966552
3.739000	0.962688
3.740000	0.964942
3.741000	0.961077
3.742000	0.963976
3.743000	0.975570
3.744000	0.968163
3.745000	0.967196
3.746000	0.965586
3.747000	0.967841
3.748000	0.970739
3.749000	0.970739
3.750000	0.970739
3.751000	0.975892
3.752000	0.974926
3.753000	0.973637
3.754000	0.971061
3.755000	0.973960
3.756000	0.969451
3.757000	0.970095
3.758000	0.971705
3.759000	0.973960
3.760000	0.976536
3.761000	0.970739
3.762000	0.971705
3.763000	0.971061
3.764000	0.972993
3.765000	0.976858
3.766000	0.974604
3.767000	0.973637
3.768000	0.973315
3.769000	0.968163
3.770000	0.963010
3.771000	0.965586
3.772000	0.961399
3.773000	0.965908
3.774000	0.967518
3.775000	0.965908
3.776000	0.963976
3.777000	0.955925
3.778000	0.953670
3.779000	0.961722
3.780000	0.958501
3.781000	0.959145
3.782000	0.960433
3.783000	0.957535
3.784000	0.951738
3.785000	0.952060
3.786000	0.948195
3.787000	0.950772
3.788000	0.950450
3.789000	0.954958
3.790000	0.957213
3.791000	0.958179
3.792000	0.949806
3.793000	0.952060
3.794000	0.946263
3.795000	0.952704
3.796000	0.951094
3.797000	0.951738
3.798000	0.959789
3.799000	0.958501
3.800000	0.948839
3.801000	0.950128
3.802000	0.954636
3.803000	0.953992
3.804000	0.950128
3.805000	0.951416
3.806000	0.954636
3.807000	0.953348
3.808000	0.948195
3.809000	0.951094
3.810000	0.951738
3.811000	0.947873
3.812000	0.954636
3.813000	0.961722
3.814000	0.956247
3.815000	0.954636
3.816000	0.952382
3.817000	0.952382
3.818000	0.954958
3.819000	0.946585
3.820000	0.950772
3.821000	0.955603
3.822000	0.953992
3.823000	0.952382
3.824000	0.950772
3.825000	0.953026
3.826000	0.953348
3.827000	0.956569
3.828000	0.952382
3.829000	0.953026
3.830000	0.954958
3.831000	0.952704
3.832000	0.955281
3.833000	0.954314
3.834000	0.952382
3.835000	0.954636
3.836000	0.953026
3.837000	0.955281
3.838000	0.954314
3.839000	0.948195
3.840000	0.950128
3.841000	0.948517
3.842000	0.951094
3.843000	0.953026
3.844000	0.957213
3.845000	0.957213
3.846000	0.955925
3.847000	0.954314
3.848000	0.953348
3.849000	0.955281
3.850000	0.952704
3.851000	0.955281
3.852000	0.960755
3.853000	0.960755
3.854000	0.955925
3.855000	0.956569
3.856000	0.954314
3.857000	0.951094
3.858000	0.953670
3.859000	0.954636
3.860000	0.957857
3.861000	0.953992
3.862000	0.958501
3.863000	0.955281
3.864000	0.954636
3.865000	0.958823
3.866000	0.957213
3.867000	0.959467
3.868000	0.962044
3.869000	0.960111
3.870000	0.959145
3.871000	0.956891
3.872000	0.956569
3.873000	0.956891
3.874000	0.955281
3.875000	0.960755
3.876000	0.962688
3.877000	0.965908
3.878000	0.957535
3.879000	0.964298
3.880000	0.960755
3.881000	0.954314
3.882000	0.963010
3.883000	0.967518
3.884000	0.964942
3.885000	0.965908
3.886000	0.960755
3.887000	0.963976
3.888000	0.962688
3.889000	0.960755
3.890000	0.966552
3.891000	0.968163
3.892000	0.963010
3.893000	0.963010
3.894000	0.961722
3.895000	0.963332
3.896000	0.964298
3.897000	0.966874
3.898000	0.967841
3.899000	0.969129
3.900000	0.969773
3.901000	0.969129
3.902000	0.967841
3.903000	0.968485
3.904000	0.969773
3.905000	0.969773
3.906000	0.970739
3.907000	0.972993
3.908000	0.969773
3.909000	0.974604
3.910000	0.972027
3.911000	0.971061
3.912000	0.971061
3.913000	0.974604
3.914000	0.975892
3.915000	0.970095
3.916000	0.972993
3.917000	0.970739
3.918000	0.971383
3.919000	0.970417
3.920000	0.965908
3.921000	0.970417
3.922000	0.976214
3.923000	0.969451
3.924000	0.964620
3.925000	0.964298
3.926000	0.963332
3.927000	0.961077
3.928000	0.960755
3.929000	0.963010
3.930000	0.962044
3.931000	0.961077
3.932000	0.953026
3.933000	0.955925
3.934000	0.958179
3.935000	0.954958
3.936000	0.956247
3.937000	0.959789
3.938000	0.958179
3.939000	0.953992
3.940000	0.949806
3.941000	0.944653
3.942000	0.946263
3.943000	0.949484
3.944000	0.952382
3.945000	0.953992
3.946000	0.954636
3.947000	0.957213
3.948000	0.953670
3.949000	0.950450
3.950000	0.951738
3.951000	0.945619
3.952000	0.954636
3.953000	0.958501
3.954000	0.957857
3.955000	0.951738
3.956000	0.949162
3.957000	0.949162
3.958000	0.952382
3.959000	0.949484
3.960000	0.953026
3.961000	0.958179
3.962000	0.955925
3.963000	0.951094
3.964000	0.950128
3.965000	0.954958
3.966000	0.952060
3.967000	0.953992
3.968000	0.952382
3.969000	0.957213
3.970000	0.953348
3.971000	0.949484
3.972000	0.951094
3.973000	0.950450
3.974000	0.951738
3.975000	0.956891
3.976000	0.949484
3.977000	0.954636
3.978000	0.954958
3.979000	0.953348
3.980000	0.951094
3.981000	0.949806
3.982000	0.953992
3.983000	0.957213
3.984000	0.953348
3.985000	0.956569
3.986000	0.955925
3.987000	0.951416
3.988000	0.949484
3.989000	0.953348
3.990000	0.950128
3.991000	0.951416
3.992000	0.957535
3.993000	0.953670
3.994000	0.953670
3.995000	0.954636
3.996000	0.954314
3.997000	0.953992
3.998000	0.954314
3.999000	0.953670
4.000000	0.962366
4.001000	0.954636
4.002000	0.953670
4.003000	0.952704
4.004000	0.952060
4.005000	0.953026
4.006000	0.953670
4.007000	0.956247
4.008000	0.958501
4.009000	0.959467
4.010000	0.955925
4.011000	0.954636
4.012000	0.954636
4.013000	0.952060
4.014000	0.957213
4.015000	0.956891
4.016000	0.960433
4.017000	0.959789
4.018000	0.954958
4.019000	0.957535
4.020000	0.955281
4.021000	0.954636
4.022000	0.963010
4.023000	0.965908
4.024000	0.962044
4.025000	0.958179
4.026000	0.957857
4.027000	0.958179
4.028000	0.957535
4.029000	0.955925
4.030000	0.960755
4.031000	0.968807
4.032000	0.969451
4.033000	0.966874
4.034000	0.960433
4.035000	0.959789
4.036000	0.963976
4.037000	0.960111
4.038000	0.964942
4.039000	0.965264
4.040000	0.965264
4.041000	0.963976
4.042000	0.962366
4.043000	0.962688
4.044000	0.965908
4.045000	0.965908
4.046000	0.967518
4.047000	0.972349
4.048000	0.970417
4.049000	0.966874
4.050000	0.965586
4.051000	0.968485
4.052000	0.966230
4.053000	0.967841
4.054000	0.968485
4.055000	0.970739
4.056000	0.970739
4.057000	0.968807
4.058000	0.965908
4.059000	0.972349
4.060000	0.965586
4.061000	0.968163
4.062000	0.976858
4.063000	0.973637
4.064000	0.973315
4.065000	0.969451
4.066000	0.971383
4.067000	0.970417
4.068000	0.971061
4.069000	0.972027
4.070000	0.977180
4.071000	0.975570
4.072000	0.970739
4.073000	0.967841
4.074000	0.968163
4.075000	0.967196
4.076000	0.967196
4.077000	0.964298
4.078000	0.966874
4.079000	0.966552
4.080000	0.960111
4.081000	0.963976
4.082000	0.961077
4.083000	0.960111
4.084000	0.955925
4.085000	0.957213
4.086000	0.959145
4.087000	0.956891
4.088000	0.949484
4.089000	0.950128
4.090000	0.953992
4.091000	0.948195
4.092000	0.951416
4.093000	0.959789
4.094000	0.957535
4.095000	0.953026
4.096000	0.951416
4.097000	0.948195
4.098000	0.951416
4.099000	0.950450
4.100000	0.949806
4.101000	0.955281
4.102000	0.954314
4.103000	0.952060
4.104000	0.952382
4.105000	0.950450
4.106000	0.951094
4.107000	0.949162
4.108000	0.952382
4.109000	0.954314
4.110000	0.952060
4.111000	0.948517
4.112000	0.953026
4.113000	0.950772
4.114000	0.955603
4.115000	0.952382
4.116000	0.955603
4.117000	0.958179
4.118000	0.956891
4.119000	0.946263
4.120000	0.951738
4.121000	0.946907
4.122000	0.951094
4.123000	0.949162
4.124000	0.948195
4.125000	0.952704
4.126000	0.953348
4.127000	0.946263
4.128000	0.951738
4.129000	0.953992
4.130000	0.944331
4.131000	0.954636
4.132000	0.961399
4.133000	0.958179
4.134000	0.953026
4.135000	0.952060
4.136000	0.951416
4.137000	0.952060
4.138000	0.949162
4.139000	0.951738
4.140000	0.959467
4.141000	0.956891
4.142000	0.953026
4.143000	0.953348
4.144000	0.955925
4.145000	0.955603
4.146000	0.954314
4.147000	0.954636
4.148000	0.955925
4.149000	0.953026
4.150000	0.949484
4.151000	0.951738
4.152000	0.957857
4.153000	0.950772
4.154000	0.954636
4.155000	0.957213
4.156000	0.958823
4.157000	0.956247
4.158000	0.955925
4.159000	0.958179
4.160000	0.959789
4.161000	0.958179
4.162000	0.964298
4.163000	0.976858
4.164000	0.972027
4.165000	0.978468
4.166000	0.979112
4.167000	0.980078
4.168000	0.981689
4.169000	0.986520
4.170000	0.990384
4.171000	0.994571
4.172000	0.997469
4.173000	0.996825
4.174000	0.998757
4.175000	1.004554
4.176000	1.005199
4.177000	1.009063
4.178000	1.011318
4.179000	1.016148
4.180000	1.020657
4.181000	1.022267
4.182000	1.021301
4.183000	1.027098
4.184000	1.025166
4.185000	1.029997
4.186000	1.031607
4.187000	1.029352
4.188000	1.033539
4.189000	1.031929
4.190000	1.035471
4.191000	1.036115
4.192000	1.038370
4.193000	1.038692
4.194000	1.043523
4.195000	1.041590
4.196000	1.044167
4.197000	1.038370
4.198000	1.041268
4.199000	1.040624
4.200000	1.037082
4.201000	1.045777
4.202000	1.050930
4.203000	1.041590
4.204000	1.041912
4.205000	1.045455
4.206000	1.050608
4.207000	1.039014
4.208000	1.034183
4.209000	1.037082
4.210000	1.043201
4.211000	1.040624
4.212000	1.042557
4.213000	1.035471
4.214000	1.034827
4.215000	1.038370
4.216000	1.034827
4.217000	1.030963
4.218000	1.031285
4.219000	1.030641
4.220000	1.019369
4.221000	1.025488
4.222000	1.016792
4.223000	1.011962
4.224000	1.017114
4.225000	1.012606
4.226000	1.007453
4.227000	1.002622
4.228000	1.001656
4.229000	0.997791
4.230000	0.991672
4.231000	0.991028
4.232000	0.987486
4.233000	0.985875
4.234000	0.981045
4.235000	0.973637
4.236000	0.968807
4.237000	0.962366
4.238000	0.961399
4.239000	0.952704
4.240000	0.956247
4.241000	0.955603
4.242000	0.953348
4.243000	0.952382
4.244000	0.952704
4.245000	0.955603
4.246000	0.954314
4.247000	0.951416
4.248000	0.955603
4.249000	0.958823
4.250000	0.956247
4.251000	0.950450
4.252000	0.951416
4.253000	0.951738
4.254000	0.953348
4.255000	0.954314
4.256000	0.951094
4.257000	0.953026
4.258000	0.953670
4.259000	0.952382
4.260000	0.953026
4.261000	0.950772
4.262000	0.958179
4.263000	0.955281
4.264000	0.955603
4.265000	0.954314
4.266000	0.957535
4.267000	0.953026
4.268000	0.953992
4.269000	0.952382
4.270000	0.946263
4.271000	0.950128
4.272000	0.958179
4.273000	0.953670
4.274000	0.948839
4.275000	0.951738
4.276000	0.955603
4.277000	0.951416
4.278000	0.951738
4.279000	0.956247
4.280000	0.955281
4.281000	0.956569
4.282000	0.953670
4.283000	0.951416
4.284000	0.947551
4.285000	0.953026
4.286000	0.955603
4.287000	0.953348
4.288000	0.954958
4.289000	0.957857
4.290000	0.954636
4.291000	0.951094
4.292000	0.951416
4.293000	0.955603
4.294000	0.953670
4.295000	0.957213
4.296000	0.961399
4.297000	0.956569
4.298000	0.952704
4.299000	0.948517
4.300000	0.946585
4.301000	0.948195
4.302000	0.946907
4.303000	0.947551
4.304000	0.949806
4.305000	0.950772
4.306000	0.942076
4.307000	0.940144
4.308000	0.942076
4.309000	0.936924
4.310000	0.938856
4.311000	0.939500
4.312000	0.934991
4.313000	0.931771
4.314000	0.926940
4.315000	0.919855
4.316000	0.914380
4.317000	0.928228
4.318000	0.955603
4.319000	1.001012
4.320000	1.020335
4.321000	1.067354
4.322000	1.101170
4.323000	1.130799
4.324000	1.163970
4.325000	1.196175
4.326000	1.228380
4.327000	1.261552
4.328000	1.292791
4.329000	1.317589
4.330000	1.352370
4.331000	1.385864
4.332000	1.418069
4.333000	1.451884
4.334000	1.484089
4.335000	1.516939
4.336000	1.547856
4.337000	1.467343
4.338000	1.440290
4.339000	1.416459
4.340000	1.395847
4.341000	1.375236
4.342000	1.356235
4.343000	1.328860
4.344000	1.307927
4.345000	1.285383
4.346000	1.263484
4.347000	1.231923
4.348000	1.208735
4.349000	1.182649
4.350000	1.164936
4.351000	1.147223
4.352000	1.115662
4.353000	1.088610
4.354000	1.065422
4.355000	1.043845
4.356000	1.025488
4.357000	1.000690
4.358000	0.982011
4.359000	0.959789
4.360000	0.939500
4.361000	0.919855
4.362000	0.899244
4.363000	0.879598
4.364000	0.874446
4.365000	0.884751
4.366000	0.887328
4.367000	0.893447
4.368000	0.895379
4.369000	0.894091
4.370000	0.895379
4.371000	0.902464
4.372000	0.904718
4.373000	0.906651
4.374000	0.923397
4.375000	0.937890
4.376000	0.950772
4.377000	0.959467
4.378000	0.965586
4.379000	0.964620
4.380000	0.968807
4.381000	0.975892
4.382000	0.968807
4.383000	0.968485
4.384000	0.966874
4.385000	0.961077
4.386000	0.965586
4.387000	0.960755
4.388000	0.961077
4.389000	0.965586
4.390000	0.956891
4.391000	0.958823
4.392000	0.956569
4.393000	0.954636
4.394000	0.953026
4.395000	0.954314
4.396000	0.958501
4.397000	0.952704
4.398000	0.954958
4.399000	0.956247
4.400000	0.956569
4.401000	0.949162
4.402000	0.953026
4.403000	0.952060
4.404000	0.950772
4.405000	0.955603
4.406000	0.955925
4.407000	0.951416
4.408000	0.952060
4.409000	0.948195
4.410000	0.955603
4.411000	0.959467
4.412000	0.962688
4.413000	0.967196
4.414000	0.966230
4.415000	0.966552
4.416000	0.970739
4.417000	0.974282
4.418000	0.976536
4.419000	0.983299
4.420000	0.990062
4.421000	0.987486
4.422000	0.992639
4.423000	0.990062
4.424000	0.991672
4.425000	1.001334
4.426000	0.996825
4.427000	1.005199
4.428000	1.009707
4.429000	1.014216
4.430000	1.013250
4.431000	1.017114
4.432000	1.017759
4.433000	1.023233
4.434000	1.024200
4.435000	1.032573
4.436000	1.031285
4.437000	1.033539
4.438000	1.035471
4.439000	1.035793
4.440000	1.042234
4.441000	1.040302
4.442000	1.051896
4.443000	1.048353
4.444000	1.061236
4.445000	1.059625
4.446000	1.054150
4.447000	1.064456
4.448000	1.062846
4.449000	1.056083
4.450000	1.068965
4.451000	1.074118
4.452000	1.070575
4.453000	1.066066
4.454000	1.075728
4.455000	1.071541
4.456000	1.072185
4.457000	1.072507
4.458000	1.077016
4.459000	1.083135
4.460000	1.084423
4.461000	1.082169
4.462000	1.082813
4.463000	1.081203
4.464000	1.082491
4.465000	1.084745
4.466000	1.088610
4.467000	1.092152
4.468000	1.091830
4.469000	1.090542
4.470000	1.090220
4.471000	1.091508
4.472000	1.085711
4.473000	1.095373
4.474000	1.087000
4.475000	1.082491
4.476000	1.083457
4.477000	1.082491
4.478000	1.082169
4.479000	1.085389
4.480000	1.083135
4.481000	1.085389
4.482000	1.091830
4.483000	1.089254
4.484000	1.089576
4.485000	1.090220
4.486000	1.079592
4.487000	1.079270
4.488000	1.076050
4.489000	1.076050
4.490000	1.084423
4.491000	1.084101
4.492000	1.072185
4.493000	1.073151
4.494000	1.072507
4.495000	1.079915
4.496000	1.069609
4.497000	1.071541
4.498000	1.073796
4.499000	1.066388
4.500000	1.066388
4.501000	1.064456
4.502000	1.061558
4.503000	1.062202
4.504000	1.048998
4.505000	1.058981
4.506000	1.051574
4.507000	1.051574
4.508000	1.045777
4.509000	1.039980
4.510000	1.043845
4.511000	1.032573
4.512000	1.041590
4.513000	1.035149
4.514000	1.037404
4.515000	1.025810
4.516000	1.028064
4.517000	1.023233
4.518000	1.025166
4.519000	1.014216
4.520000	1.020335
4.521000	1.014538
4.522000	1.011318
4.523000	1.013894
4.524000	1.004876
4.525000	1.002944
4.526000	1.001978
4.527000	0.997791
4.528000	0.994571
4.529000	0.996503
4.530000	0.989740
4.531000	0.978468
4.532000	0.983621
4.533000	0.981045
4.534000	0.972027
4.535000	0.970417
4.536000	0.966552
4.537000	0.968807
4.538000	0.968485
4.539000	0.958179
4.540000	0.961722
4.541000	0.959145
4.542000	0.959145
4.543000	0.956569
4.544000	0.957213
4.545000	0.961077
4.546000	0.959467
4.547000	0.955925
4.548000	0.955603
4.549000	0.953026
4.550000	0.953026
4.551000	0.953348
4.552000	0.955603
4.553000	0.954958
4.554000	0.954636
4.555000	0.950450
4.556000	0.949162
4.557000	0.949484
4.558000	0.950450
4.559000	0.951738
4.560000	0.957857
4.561000	0.953992
4.562000	0.954636
4.563000	0.949162
4.564000	0.953348
4.565000	0.955925
4.566000	0.954958
4.567000	0.955925
4.568000	0.959145
4.569000	0.955603
4.570000	0.953992
4.571000	0.952060
4.572000	0.950772
4.573000	0.949162
4.574000	0.954636
4.575000	0.950772
4.576000	0.957535
4.577000	0.948839
4.578000	0.951094
4.579000	0.950128
4.580000	0.953026
4.581000	0.951738
4.582000	0.952382
4.583000	0.955925
4.584000	0.956569
4.585000	0.954314
4.586000	0.950128
4.587000	0.950450
4.588000	0.953992
4.589000	0.950128
4.590000	0.954314
4.591000	0.955281
4.592000	0.955925
4.593000	0.958823
4.594000	0.953670
4.595000	0.955281
4.596000	0.955281
4.597000	0.950450
4.598000	0.952382
4.599000	0.958179
4.600000	0.954636
4.601000	0.951094
4.602000	0.953026
4.603000	0.953348
4.604000	0.954314
4.605000	0.955603
4.606000	0.954636
4.607000	0.960111
4.608000	0.956569
4.609000	0.956569
4.610000	0.953670
4.611000	0.951738
4.612000	0.958501
4.613000	0.954958
4.614000	0.953026
4.615000	0.961077
4.616000	0.957535
4.617000	0.958179
4.618000	0.957535
4.619000	0.955925
4.620000	0.958179
4.621000	0.956247
4.622000	0.957213
4.623000	0.959467
4.624000	0.958179
4.625000	0.953026
4.626000	0.952382
4.627000	0.956569
4.628000	0.953992
4.629000	0.960755
4.630000	0.965586
4.631000	0.959789
4.632000	0.956891
4.633000	0.956569
4.634000	0.954636
4.635000	0.959789
4.636000	0.958501
4.637000	0.956569
4.638000	0.963010
4.639000	0.961722
4.640000	0.954636
4.641000	0.957857
4.642000	0.959789
4.643000	0.957213
4.644000	0.962044
4.645000	0.959145
4.646000	0.964620
4.647000	0.964298
4.648000	0.962366
4.649000	0.963654
4.650000	0.965264
4.651000	0.963654
4.652000	0.966552
4.653000	0.965908
4.654000	0.967196
4.655000	0.969129
4.656000	0.963976
4.657000	0.964298
4.658000	0.964942
4.659000	0.964942
4.660000	0.967841
4.661000	0.972349
4.662000	0.966230
4.663000	0.966874
4.664000	0.967196
4.665000	0.968163
4.666000	0.971061
4.667000	0.970417
4.668000	0.973637
4.669000	0.974604
4.670000	0.971383
4.671000	0.969773
4.672000	0.967196
4.673000	0.970095
4.674000	0.966230
4.675000	0.968163
4.676000	0.974604
4.677000	0.977502
4.678000	0.973315
4.679000	0.973960
4.680000	0.970739
4.681000	0.973315
4.682000	0.966874
4.683000	0.970095
4.684000	0.970739
4.685000	0.968163
4.686000	0.970739
4.687000	0.972027
4.688000	0.968485
4.689000	0.965908
4.690000	0.965586
4.691000	0.964942
4.692000	0.963332
4.693000	0.963332
4.694000	0.963010
4.695000	0.959789
4.696000	0.958179
4.697000	0.956891
4.698000	0.953992
4.699000	0.958501
4.700000	0.959789
4.701000	0.956891
4.702000	0.951416
4.703000	0.952382
4.704000	0.952060
4.705000	0.947873
4.706000	0.952704
4.707000	0.952382
4.708000	0.957535
4.709000	0.953992
4.710000	0.953348
4.711000	0.951738
4.712000	0.949806
4.713000	0.951094
4.714000	0.951094
4.715000	0.957213
4.716000	0.958179
4.717000	0.957857
4.718000	0.952382
4.719000	0.951738
4.720000	0.952704
4.721000	0.950128
4.722000	0.955603
4.723000	0.950772
4.724000	0.953992
4.725000	0.954958
4.726000	0.950772
4.727000	0.951738
4.728000	0.952060
4.729000	0.952060
4.730000	0.953992
4.731000	0.956569
4.732000	0.955603
4.733000	0.953670
4.734000	0.949806
4.735000	0.949806
4.736000	0.952704
4.737000	0.944009
4.738000	0.955925
4.739000	0.958179
4.740000	0.957213
4.741000	0.952060
4.742000	0.951738
4.743000	0.950128
4.744000	0.948195
4.745000	0.952382
4.746000	0.954636
4.747000	0.959467
4.748000	0.959467
4.749000	0.947551
4.750000	0.954314
4.751000	0.954314
4.752000	0.957213
4.753000	0.955281
4.754000	0.953348
4.755000	0.954314
4.756000	0.957857
4.757000	0.953026
4.758000	0.954314
4.759000	0.951416
4.760000	0.951738
4.761000	0.953670
4.762000	0.956891
4.763000	0.961722
4.764000	0.958823
4.765000	0.953670
4.766000	0.950128
4.767000	0.956891
4.768000	0.948839
4.769000	0.956569
4.770000	0.962688
4.771000	0.954958
4.772000	0.952382
4.773000	0.957535
4.774000	0.953670
4.775000	0.955925
4.776000	0.955281
4.777000	0.957213
4.778000	0.961722
4.779000	0.959467
4.780000	0.955281
4.781000	0.958179
4.782000	0.957213
4.783000	0.954958
4.784000	0.957857
4.785000	0.953348
4.786000	0.959145
4.787000	0.960111
4.788000	0.959789
4.789000	0.959789
4.790000	0.959467
4.791000	0.956247
4.792000	0.959145
4.793000	0.961077
4.794000	0.959145
4.795000	0.962688
4.796000	0.959789
4.797000	0.957213
4.798000	0.962044
4.799000	0.961722
4.800000	0.963654
4.801000	0.965908
4.802000	0.965586
4.803000	0.969129
4.804000	0.961722
4.805000	0.962688
4.806000	0.962366
4.807000	0.959789
4.808000	0.963332
4.809000	0.972671
4.810000	0.968163
4.811000	0.967518
4.812000	0.966230
4.813000	0.967841
4.814000	0.968163
4.815000	0.967196
4.816000	0.967518
4.817000	0.973315
4.818000	0.973637
4.819000	0.963332
4.820000	0.966552
4.821000	0.970739
4.822000	0.971061
4.823000	0.971705
4.824000	0.970739
4.825000	0.974604
4.826000	0.977180
4.827000	0.972671
4.828000	0.972671
4.829000	0.969129
4.830000	0.976214
4.831000	0.972993
4.832000	0.972349
4.833000	0.972349
4.834000	0.973315
4.835000	0.972671
4.836000	0.973637
4.837000	0.972993
4.838000	0.966874
4.839000	0.968485
4.840000	0.972027
4.841000	0.965908
4.842000	0.966230
4.843000	0.964298
4.844000	0.961077
4.845000	0.964942
4.846000	0.961077
4.847000	0.964620
4.848000	0.963010
4.849000	0.964620
4.850000	0.960433
4.851000	0.958823
4.852000	0.956247
4.853000	0.957857
4.854000	0.951416
4.855000	0.952382
4.856000	0.952704
4.857000	0.953670
4.858000	0.950128
4.859000	0.951738
4.860000	0.946263
4.861000	0.951094
4.862000	0.952382
4.863000	0.953670
4.864000	0.956569
4.865000	0.955603
4.866000	0.949162
4.867000	0.952382
4.868000	0.949806
4.869000	0.950450
4.870000	0.953670
4.871000	0.953992
4.872000	0.956891
4.873000	0.954958
4.874000	0.952060
4.875000	0.951094
4.876000	0.950450
4.877000	0.946585
4.878000	0.955603
4.879000	0.958501
4.880000	0.954636
4.881000	0.953026
4.882000	0.953992
4.883000	0.950128
4.884000	0.954314
4.885000	0.951416
4.886000	0.953992
4.887000	0.955281
4.888000	0.954636
4.889000	0.954314
4.890000	0.951094
4.891000	0.950450
4.892000	0.947551
4.893000	0.951416
4.894000	0.952382
4.895000	0.954958
4.896000	0.956247
4.897000	0.952382
4.898000	0.953992
4.899000	0.956247
4.900000	0.950772
4.901000	0.954314
4.902000	0.956569
4.903000	0.953026
4.904000	0.957213
4.905000	0.951738
4.906000	0.949806
4.907000	0.953026
4.908000	0.953348
4.909000	0.954314
4.910000	0.962688
4.911000	0.956891
4.912000	0.956569
4.913000	0.958179
4.914000	0.952704
4.915000	0.953670
4.916000	0.953348
4.917000	0.954314
4.918000	0.960755
4.919000	0.958823
4.920000	0.950128
4.921000	0.953026
4.922000	0.949806
4.923000	0.957535
4.924000	0.952704
4.925000	0.950450
4.926000	0.960755
4.927000	0.959789
4.928000	0.951094
4.929000	0.957857
4.930000	0.956247
4.931000	0.956247
4.932000	0.959145
4.933000	0.962044
4.934000	0.958823
4.935000	0.962044
4.936000	0.957857
4.937000	0.952382
4.938000	0.955925
4.939000	0.959789
4.940000	0.955925
4.941000	0.957857
4.942000	0.959467
4.943000	0.962688
4.944000	0.959145
4.945000	0.961722
4.946000	0.958179
4.947000	0.959789
4.948000	0.962044
4.949000	0.970739
4.950000	0.961722
4.951000	0.959789
4.952000	0.959789
4.953000	0.963332
4.954000	0.958179
4.955000	0.958501
4.956000	0.964620
4.957000	0.968163
4.958000	0.966874
4.959000	0.964298
4.960000	0.960755
4.961000	0.961399
4.962000	0.963976
4.963000	0.963976
4.964000	0.964942
4.965000	0.970095
4.966000	0.972993
4.967000	0.968807
4.968000	0.966230
4.969000	0.964620
4.970000	0.970095
4.971000	0.966230
4.972000	0.970095
4.973000	0.973960
4.974000	0.974282
4.975000	0.972993
4.976000	0.970095
4.977000	0.970095
4.978000	0.969129
4.979000	0.969773
4.980000	0.972349
4.981000	0.973315
4.982000	0.975248
4.983000	0.970417
4.984000	0.973960
4.985000	0.972349
4.986000	0.967841
4.987000	0.971705
4.988000	0.972349
4.989000	0.966552
4.990000	0.967518
4.991000	0.966230
4.992000	0.967196
4.993000	0.964942
4.994000	0.965908
4.995000	0.966230
4.996000	0.970417
4.997000	0.969773
4.998000	0.963654
4.999000	0.964620
5.000000	0.963332
5.001000	0.960433
5.002000	0.957857
5.003000	0.958179
5.004000	0.958823
5.005000	0.955925
5.006000	0.952382
5.007000	0.955925
5.008000	0.950772
5.009000	0.954958
5.010000	0.954314
5.011000	0.953348
5.012000	0.954958
5.013000	0.954636
5.014000	0.949162
5.015000	0.951094
5.016000	0.953348
5.017000	0.948517
5.018000	0.955925
5.019000	0.961077
5.020000	0.954636
5.021000	0.955281
5.022000	0.949162
5.023000	0.950450
5.024000	0.948195
5.025000	0.950128
5.026000	0.952382
5.027000	0.953992
5.028000	0.953026
5.029000	0.950128
5.030000	0.948195
5.031000	0.952704
5.032000	0.955281
5.033000	0.952382
5.034000	0.953992
5.035000	0.952704
5.036000	0.953670
5.037000	0.949162
5.038000	0.949806
5.039000	0.953670
5.040000	0.952060
5.041000	0.951416
5.042000	0.952704
5.043000	0.953026
5.044000	0.952704
5.045000	0.953026
5.046000	0.953348
5.047000	0.955925
5.048000	0.952704
5.049000	0.958179
5.050000	0.954314
5.051000	0.955281
5.052000	0.958179
5.053000	0.952060
5.054000	0.953026
5.055000	0.952060
5.056000	0.947229
5.057000	0.954314
5.058000	0.958179
5.059000	0.959467
5.060000	0.953670
5.061000	0.948839
5.062000	0.953348
5.063000	0.952382
5.064000	0.942720
5.065000	0.956891
5.066000	0.957535
5.067000	0.959145
5.068000	0.956569
5.069000	0.954636
5.070000	0.952382
5.071000	0.956569
5.072000	0.952060
5.073000	0.956569
5.074000	0.952704
5.075000	0.960433
5.076000	0.955281
5.077000	0.955925
5.078000	0.957857
5.079000	0.955603
5.080000	0.954314
5.081000	0.958823
5.082000	0.961077
5.083000	0.957857
5.084000	0.957535
5.085000	0.954958
5.086000	0.956569
5.087000	0.953348
5.088000	0.957535
5.089000	0.964298
5.090000	0.959145
5.091000	0.955925
5.092000	0.958179
5.093000	0.961077
5.094000	0.957213
5.095000	0.957857
5.096000	0.961722
5.097000	0.967196
5.098000	0.962044
5.099000	0.958823
5.100000	0.960111
5.101000	0.961077
5.102000	0.959789
5.103000	0.959145
5.104000	0.963654
5.105000	0.965264
5.106000	0.966230
5.107000	0.963332
5.108000	0.960111
5.109000	0.964620
5.110000	0.962688
5.111000	0.963332
5.112000	0.964298
5.113000	0.963654
5.114000	0.968163
5.115000	0.961077
5.116000	0.965586
5.117000	0.967518
5.118000	0.966230
5.119000	0.969773
5.120000	0.971383
5.121000	0.968163
5.122000	0.966552
5.123000	0.963654
5.124000	0.966230
5.125000	0.967518
5.126000	0.963976
5.127000	0.967196
5.128000	0.980078
5.129000	0.973315
5.130000	0.970739
5.131000	0.968485
5.132000	0.970739
5.133000	0.974282
5.134000	0.967196
5.135000	0.971705
5.136000	0.975892
5.137000	0.973960
5.138000	0.970095
5.139000	0.968485
5.140000	0.969773
5.141000	0.967518
5.142000	0.974926
5.143000	0.972993
5.144000	0.969451
5.145000	0.969451
5.146000	0.964620
5.147000	0.963010
5.148000	0.965264
5.149000	0.965264
5.150000	0.964620
5.151000	0.963976
5.152000	0.966874
5.153000	0.963654
5.154000	0.955925
5.155000	0.955603
5.156000	0.955925
5.157000	0.952060
5.158000	0.953992
5.159000	0.962688
5.160000	0.959467
5.161000	0.955281
5.162000	0.952382
5.163000	0.956247
5.164000	0.949484
5.165000	0.951416
5.166000	0.961722
5.167000	0.963654
5.168000	0.962366
5.169000	0.964298
5.170000	0.963332
5.171000	0.966230
5.172000	0.972671
5.173000	0.968807
5.174000	0.978146
5.175000	0.984265
5.176000	0.986842
5.177000	0.982977
5.178000	0.985553
5.179000	0.994249
5.180000	0.995859
5.181000	1.002300
5.182000	1.001978
5.183000	1.007453
5.184000	1.007775
5.185000	1.001012
5.186000	1.011318
5.187000	1.006165
5.188000	1.010995
5.189000	1.017114
5.190000	1.019369
5.191000	1.020013
5.192000	1.025166
5.193000	1.028064
5.194000	1.022267
5.195000	1.022267
5.196000	1.018725
5.197000	1.027098
5.198000	1.037404
5.199000	1.034183
5.200000	1.032573
5.201000	1.025488
5.202000	1.031285
5.203000	1.029352
5.204000	1.031929
5.205000	1.032895
5.206000	1.034505
5.207000	1.031929
5.208000	1.029997
5.209000	1.028708
5.210000	1.030641
5.211000	1.025166
5.212000	1.030319
5.213000	1.032573
5.214000	1.028064
5.215000	1.031285
5.216000	1.023555
5.217000	1.024844
5.218000	1.024522
5.219000	1.026454
5.220000	1.019047
5.221000	1.017759
5.222000	1.024844
5.223000	1.012284
5.224000	1.012284
5.225000	1.012284
5.226000	1.007131
5.227000	1.008419
5.228000	1.009707
5.229000	1.008741
5.230000	1.004232
5.231000	1.000046
5.232000	0.999402
5.233000	0.988130
5.234000	0.985875
5.235000	0.989418
5.236000	0.984265
5.237000	0.991350
5.238000	0.978790
5.239000	0.978146
5.240000	0.971061
5.241000	0.967841
5.242000	0.968485
5.243000	0.962044
5.244000	0.964620
5.245000	0.963976
5.246000	0.962044
5.247000	0.955925
5.248000	0.959789
5.249000	0.959789
5.250000	0.958179
5.251000	0.960755
5.252000	0.958823
5.253000	0.966230
5.254000	0.959467
5.255000	0.956247
5.256000	0.957213
5.257000	0.959789
5.258000	0.961722
5.259000	0.964620
5.260000	0.962688
5.261000	0.962688
5.262000	0.968807
5.263000	0.961722
5.264000	0.963010
5.265000	0.964620
5.266000	0.955925
5.267000	0.964942
5.268000	0.971705
5.269000	0.965586
5.270000	0.961722
5.271000	0.964298
5.272000	0.963010
5.273000	0.965908
5.274000	0.960755
5.275000	0.964620
5.276000	0.963332
5.277000	0.968807
5.278000	0.966230
5.279000	0.967841
5.280000	0.965586
5.281000	0.966874
5.282000	0.969129
5.283000	0.969129
5.284000	0.972671
5.285000	0.968163
5.286000	0.970417
5.287000	0.969129
5.288000	0.972993
5.289000	0.968485
5.290000	0.968163
5.291000	0.972349
5.292000	0.972027
5.293000	0.969773
5.294000	0.966230
5.295000	0.966874
5.296000	0.969451
5.297000	0.967196
5.298000	0.971383
5.299000	0.972671
5.300000	0.969773
5.301000	0.969129
5.302000	0.965586
5.303000	0.962688
5.304000	0.966874
5.305000	0.954958
5.306000	0.960111
5.307000	0.959789
5.308000	0.953026
5.309000	0.955925
5.310000	0.948195
5.311000	0.949484
5.312000	0.948517
5.313000	0.941110
5.314000	0.945297
5.315000	0.947229
5.316000	0.945619
5.317000	0.929194
5.318000	0.931127
5.319000	0.926296
5.320000	0.928550
5.321000	0.922109
5.322000	0.916634
5.323000	0.906973
5.324000	0.926296
5.325000	0.950450
5.326000	0.993927
5.327000	1.016792
5.328000	1.067677
5.329000	1.099238
5.330000	1.130799
5.331000	1.163648
5.332000	1.200040
5.333000	1.221295
5.334000	1.257687
5.335000	1.286994
5.336000	1.318233
5.337000	1.348828
5.338000	1.391339
5.339000	1.416136
5.340000	1.447053
5.341000	1.477326
5.342000	1.508887
5.343000	1.541737
5.344000	1.445765
5.345000	1.428052
5.346000	1.410662
5.347000	1.391661
5.348000	1.364930
5.349000	1.339488
5.350000	1.320487
5.351000	1.297944
5.352000	1.270247
5.353000	1.256077
5.354000	1.221295
5.355000	1.197785
5.356000	1.163970
5.357000	1.145613
5.358000	1.124358
5.359000	1.092475
5.360000	1.069609
5.361000	1.056083
5.362000	1.029030
5.363000	1.013894
5.364000	0.976536
5.365000	0.956891
5.366000	0.943687
5.367000	0.917600
5.368000	0.899244
5.369000	0.875734
5.370000	0.858021
5.371000	0.859309
5.372000	0.867360
5.373000	0.873479
5.374000	0.867038
5.375000	0.874446
5.376000	0.878632
5.377000	0.895057
5.378000	0.889904
5.379000	0.890870
5.380000	0.894735
5.381000	0.910515
5.382000	0.928550
5.383000	0.939500
5.384000	0.954636
5.385000	0.955603
5.386000	0.958501
5.387000	0.958179
5.388000	0.953670
5.389000	0.953670
5.390000	0.954958
5.391000	0.955925
5.392000	0.957857
5.393000	0.953992
5.394000	0.958179
5.395000	0.954636
5.396000	0.956891
5.397000	0.956569
5.398000	0.961077
5.399000	0.956247
5.400000	0.957857
5.401000	0.963976
5.402000	0.961722
5.403000	0.959145
5.404000	0.958501
5.405000	0.961399
5.406000	0.954958
5.407000	0.962044
5.408000	0.964620
5.409000	0.965586
5.410000	0.961722
5.411000	0.959145
5.412000	0.963332
5.413000	0.963010
5.414000	0.958179
5.415000	0.969773
5.416000	0.967841
5.417000	0.968163
5.418000	0.970739
5.419000	0.973315
5.420000	0.976214
5.421000	0.976214
5.422000	0.983943
5.423000	0.989740
5.424000	0.993605
5.425000	0.996825
5.426000	0.998757
5.427000	1.000368
5.428000	1.004876
5.429000	1.007453
5.430000	1.012284
5.431000	1.014538
5.432000	1.017436
5.433000	1.018403
5.434000	1.025810
5.435000	1.021623
5.436000	1.032573
5.437000	1.031607
5.438000	1.039980
5.439000	1.036760
5.440000	1.042234
5.441000	1.047387
5.442000	1.043845
5.443000	1.050930
5.444000	1.048998
5.445000	1.051574
5.446000	1.058981
5.447000	1.068965
5.448000	1.062524
5.449000	1.071541
5.450000	1.069609
5.451000	1.070897
5.452000	1.073796
5.453000	1.067354
5.454000	1.079270
5.455000	1.077660
5.456000	1.071541
5.457000	1.079270
5.458000	1.075406
5.459000	1.077982
5.460000	1.076372
5.461000	1.077982
5.462000	1.081525
5.463000	1.080559
5.464000	1.078948
5.465000	1.076694
5.466000	1.076372
5.467000	1.082169
5.468000	1.083457
5.469000	1.083779
5.470000	1.083135
5.471000	1.083457
5.472000	1.084423
5.473000	1.086678
5.474000	1.083779
5.475000	1.086356
5.476000	1.087000
5.477000	1.089254
5.478000	1.091508
5.479000	1.088288
5.480000	1.089576
5.481000	1.077660
5.482000	1.085067
5.483000	1.084101
5.484000	1.079270
5.485000	1.084745
5.486000	1.087322
5.487000	1.083779
5.488000	1.083779
5.489000	1.078304
5.490000	1.077660
5.491000	1.080559
5.492000	1.080881
5.493000	1.077016
5.494000	1.076050
5.495000	1.077660
5.496000	1.077660
5.497000	1.075728
5.498000	1.075406
5.499000	1.066388
5.500000	1.064778
5.501000	1.064456
5.502000	1.071863
5.503000	1.064456
5.504000	1.061558
5.505000	1.058981
5.506000	1.053184
5.507000	1.056083
5.508000	1.057693
5.509000	1.049320
5.510000	1.052540
5.511000	1.047387
5.512000	1.047709
5.513000	1.034505
5.514000	1.037726
5.515000	1.025488
5.516000	1.032251
5.517000	1.037082
5.518000	1.029997
5.519000	1.026454
5.520000	1.017759
5.521000	1.019047
5.522000	1.014538
5.523000	1.010351
5.524000	1.007453
5.525000	1.008741
5.526000	1.003266
5.527000	0.998757
5.528000	0.993605
5.529000	0.994571
5.530000	0.994893
5.531000	0.989418
5.532000	0.992961
5.533000	0.984587
5.534000	0.986520
5.535000	0.975248
5.536000	0.975570
5.537000	0.967841
5.538000	0.961077
5.539000	0.967518
5.540000	0.963010
5.541000	0.972349
5.542000	0.960755
5.543000	0.959467
5.544000	0.956891
5.545000	0.955603
5.546000	0.958179
5.547000	0.953026
5.548000	0.960111
5.549000	0.959467
5.550000	0.959789
5.551000	0.954958
5.552000	0.960755
5.553000	0.956247
5.554000	0.953348
5.555000	0.961399
5.556000	0.965264
5.557000	0.961399
5.558000	0.961077
5.559000	0.960755
5.560000	0.961399
5.561000	0.959145
5.562000	0.961399
5.563000	0.963010
5.564000	0.967196
5.565000	0.964620
5.566000	0.963654
5.567000	0.959467
5.568000	0.962688
5.569000	0.965264
5.570000	0.966230
5.571000	0.962366
5.572000	0.968163
5.573000	0.962688
5.574000	0.959145
5.575000	0.963654
5.576000	0.965908
5.577000	0.964298
5.578000	0.966552
5.579000	0.968163
5.580000	0.972027
5.581000	0.973637
5.582000	0.967518
5.583000	0.967518
5.584000	0.968807
5.585000	0.965586
5.586000	0.971061
5.587000	0.978146
5.588000	0.972027
5.589000	0.971383
5.590000	0.972027
5.591000	0.968807
5.592000	0.971383
5.593000	0.967518
5.594000	0.976214
5.595000	0.982977
5.596000	0.973637
5.597000	0.972349
5.598000	0.970417
5.599000	0.973315
5.600000	0.972027
5.601000	0.971383
5.602000	0.972027
5.603000	0.971383
5.604000	0.970739
5.605000	0.970095
5.606000	0.966552
5.607000	0.963976
5.608000	0.964298
5.609000	0.966230
5.610000	0.967196
5.611000	0.964620
5.612000	0.962688
5.613000	0.960755
5.614000	0.960755
5.615000	0.956569
5.616000	0.954636
5.617000	0.958501
5.618000	0.959467
5.619000	0.958179
5.620000	0.959145
5.621000	0.955281
5.622000	0.954314
5.623000	0.948839
5.624000	0.952060
5.625000	0.955281
5.626000	0.962044
5.627000	0.954958
5.628000	0.949806
5.629000	0.955925
5.630000	0.953026
5.631000	0.957535
5.632000	0.953348
5.633000	0.954314
5.634000	0.961722
5.635000	0.961399
5.636000	0.949484
5.637000	0.947873
5.638000	0.948839
5.639000	0.951738
5.640000	0.954958
5.641000	0.953026
5.642000	0.958501
5.643000	0.959145
5.644000	0.954958
5.645000	0.954636
5.646000	0.948517
5.647000	0.952382
5.648000	0.956569
5.649000	0.956891
5.650000	0.955925
5.651000	0.953670
5.652000	0.953026
5.653000	0.951416
5.654000	0.951738
5.655000	0.944975
5.656000	0.956247
5.657000	0.960755
5.658000	0.957535
5.659000	0.956569
5.660000	0.950450
5.661000	0.953670
5.662000	0.954314
5.663000	0.951416
5.664000	0.954314
5.665000	0.957857
5.666000	0.958501
5.667000	0.954314
5.668000	0.951094
5.669000	0.952060
5.670000	0.952060
5.671000	0.953026
5.672000	0.950450
5.673000	0.956569
5.674000	0.955603
5.675000	0.950772
5.676000	0.954958
5.677000	0.954958
5.678000	0.953992
5.679000	0.958501
5.680000	0.957213
5.681000	0.961077
5.682000	0.958179
5.683000	0.953992
5.684000	0.953348
5.685000	0.952704
5.686000	0.953348
5.687000	0.958823
5.688000	0.956569
5.689000	0.958501
5.690000	0.958179
5.691000	0.953992
5.692000	0.954636
5.693000	0.953348
5.694000	0.950450
5.695000	0.960433
5.696000	0.963010
5.697000	0.958823
5.698000	0.961077
5.699000	0.961077
5.700000	0.956569
5.701000	0.958823
5.702000	0.958501
5.703000	0.956247
5.704000	0.963010
5.705000	0.964298
5.706000	0.960755
5.707000	0.957213
5.708000	0.955603
5.709000	0.956569
5.710000	0.959467
5.711000	0.960433
5.712000	0.963976
5.713000	0.962688
5.714000	0.959467
5.715000	0.960111
5.716000	0.966230
5.717000	0.963654
5.718000	0.963654
5.719000	0.961077
5.720000	0.965264
5.721000	0.967518
5.722000	0.961722
5.723000	0.963010
5.724000	0.963654
5.725000	0.961077
5.726000	0.967196
5.727000	0.969773
5.728000	0.972027
5.729000	0.968807
5.730000	0.963654
5.731000	0.966874
5.732000	0.965586
5.733000	0.963654
5.734000	0.968163
5.735000	0.972349
5.736000	0.967841
5.737000	0.966874
5.738000	0.967841
5.739000	0.972349
5.740000	0.968163
5.741000	0.970417
5.742000	0.972349
5.743000	0.976536
5.744000	0.974926
5.745000	0.968807
5.746000	0.969129
5.747000	0.971383
5.748000	0.970417
5.749000	0.973315
5.750000	0.972671
5.751000	0.977824
5.752000	0.975892
5.753000	0.970417
5.754000	0.969773
5.755000	0.972993
5.756000	0.970739
5.757000	0.969451
5.758000	0.969129
5.759000	0.966552
5.760000	0.969451
5.761000	0.963332
5.762000	0.962044
5.763000	0.963010
5.764000	0.957857
5.765000	0.963332
5.766000	0.968485
5.767000	0.964620
5.768000	0.961722
5.769000	0.959467
5.770000	0.954314
5.771000	0.957535
5.772000	0.950772
5.773000	0.953992
5.774000	0.955603
5.775000	0.954958
5.776000	0.951416
5.777000	0.947551
5.778000	0.957213
5.779000	0.953670
5.780000	0.951416
5.781000	0.952060
5.782000	0.953348
5.783000	0.958823
5.784000	0.950128
5.785000	0.950128
5.786000	0.950450
5.787000	0.950450
5.788000	0.952382
5.789000	0.953670
5.790000	0.953348
5.791000	0.952704
5.792000	0.949162
5.793000	0.948839
5.794000	0.953348
5.795000	0.953026
5.796000	0.954958
5.797000	0.958823
5.798000	0.954958
5.799000	0.956569
5.800000	0.951738
5.801000	0.950128
5.802000	0.954636
5.803000	0.949162
5.804000	0.950450
5.805000	0.954314
5.806000	0.955925
5.807000	0.950450
5.808000	0.952060
5.809000	0.950128
5.810000	0.950128
5.811000	0.949806
5.812000	0.957213
5.813000	0.963654
5.814000	0.960433
5.815000	0.951416
5.816000	0.953670
5.817000	0.951738
5.818000	0.951416
5.819000	0.953670
5.820000	0.952382
5.821000	0.956247
5.822000	0.952382
5.823000	0.949806
5.824000	0.948195
5.825000	0.953348
5.826000	0.953348
5.827000	0.954636
5.828000	0.952060
5.829000	0.957213
5.830000	0.957535
5.831000	0.952382
5.832000	0.955281
5.833000	0.953026
5.834000	0.948195
5.835000	0.955603
5.836000	0.962044
5.837000	0.955925
5.838000	0.955925
5.839000	0.955603
5.840000	0.951416
5.841000	0.950772
5.842000	0.952060
5.843000	0.954636
5.844000	0.962044
5.845000	0.963654
5.846000	0.958501
5.847000	0.955281
5.848000	0.961077
5.849000	0.956569
5.850000	0.960755
5.851000	0.961077
5.852000	0.960111
5.853000	0.954314
5.854000	0.953348
5.855000	0.952704
5.856000	0.951738
5.857000	0.959145
5.858000	0.957535
5.859000	0.958179
5.860000	0.963976
5.861000	0.960111
5.862000	0.959145
5.863000	0.957857
5.864000	0.962366
5.865000	0.962688
5.866000	0.962044
5.867000	0.963654
5.868000	0.963654
5.869000	0.962688
5.870000	0.958179
5.871000	0.959145
5.872000	0.959467
5.873000	0.961077
5.874000	0.965264
5.875000	0.969129
5.876000	0.965586
5.877000	0.965908
5.878000	0.963976
5.879000	0.967196
5.880000	0.963332
5.881000	0.964942
5.882000	0.967841
5.883000	0.970739
5.884000	0.969773
5.885000	0.968163
5.886000	0.966230
5.887000	0.969129
5.888000	0.967196
5.889000	0.968807
5.890000	0.968807
